Frequency (MHz)	DB(SModel(LFCN_2352__Plus125degC,1)) : LFCN_2352__Plus25degC	DB(SModel(LFCN_2352__Plus125degC,2)) : LFCN_2352__Plus25degC	DB(SModel(LFCN_2352__Plus125degC,3)) : LFCN_2352__Plus25degC	DB(SModel(LFCN_2352__Plus125degC,4)) : LFCN_2352__Plus25degC
10	-64.069	-126.654	-59.2782	-32.5979
20	-59.7354	-119.147	-57.3172	-19.7678
30	-56.9828	-113.816	-55.3633	-19.3535
40	-55.2587	-110.434	-54.1788	-19.392
50	-53.9771	-107.887	-53.1908	-19.4687
60	-52.8895	-105.709	-51.9307	-19.6138
70	-52.1483	-104.244	-51.1817	-20.0611
80	-51.5079	-102.969	-50.5285	-20.5525
90	-50.8823	-101.704	-49.8922	-20.823
100	-50.2846	-100.507	-49.4323	-21.0411
125	-48.9316	-97.7768	-47.8532	-21.4389
150	-47.9006	-95.7311	-46.817	-21.549
175	-47.5135	-94.8161	-45.9389	-22.6338
200	-47.6947	-94.7013	-45.2121	-24.9784
225	-48.0287	-94.4886	-44.5318	-27.8729
250	-47.7009	-93.4044	-43.9418	-28.7977
275	-46.769	-91.9055	-43.358	-27.4915
300	-46.4277	-91.1242	-42.8623	-27.8829
325	-46.4162	-90.7515	-42.5394	-29.0139
350	-46.2922	-90.2023	-42.2134	-29.8026
375	-45.826	-89.4775	-41.8875	-29.3318
400	-45.5594	-88.8554	-41.5511	-29.5644
425	-45.5419	-88.2987	-41.1857	-30.8193
450	-45.4573	-87.8993	-40.9552	-31.575
475	-45.1171	-87.3567	-40.6766	-31.2297
500	-44.657	-86.6994	-40.3936	-30.3711
525	-44.3229	-86.0916	-40.1353	-30.0697
550	-44.0583	-85.5549	-39.8969	-29.9785
575	-43.8674	-85.0474	-39.619	-30.2154
600	-43.6998	-84.6213	-39.3854	-30.4497
625	-43.5672	-84.2219	-39.1921	-30.7781
650	-43.4751	-83.8265	-38.9553	-31.2354
675	-43.273	-83.3367	-38.7033	-31.2296
700	-43.0071	-82.8766	-38.4845	-30.8939
725	-42.7401	-82.4742	-38.2896	-30.4384
750	-42.5633	-82.0965	-38.097	-30.4107
775	-42.4428	-81.7311	-37.8892	-30.6592
800	-42.3088	-81.3079	-37.6823	-30.9081
825	-42.0963	-80.862	-37.4818	-30.8021
850	-41.813	-80.4128	-37.2547	-30.346
875	-41.5921	-80.0113	-37.0511	-30.1137
900	-41.4076	-79.636	-36.8727	-29.9473
925	-41.3187	-79.2754	-36.6834	-30.2478
950	-41.2373	-78.9757	-36.5393	-30.4865
975	-41.0075	-78.5822	-36.3401	-30.1119
1000	-40.7536	-78.1899	-36.1463	-29.5742
1025	-40.5891	-77.8361	-35.968	-29.4472
1050	-40.5465	-77.55	-35.8035	-29.8658
1075	-40.4327	-77.2381	-35.6324	-29.9676
1100	-40.1588	-76.8621	-35.4794	-29.3065
1125	-39.9298	-76.4932	-35.3055	-28.9057
1150	-39.8706	-76.2098	-35.1459	-29.2377
1175	-39.8941	-75.9521	-34.9701	-29.9921
1200	-39.8181	-75.6678	-34.8312	-30.1802
1225	-39.5712	-75.3174	-34.6693	-29.4363
1250	-39.4068	-74.9817	-34.4976	-29.2567
1275	-39.4463	-74.7407	-34.3506	-30.2335
1300	-39.4475	-74.5057	-34.2174	-30.9793
1325	-39.2493	-74.2164	-34.088	-30.3779
1350	-39.0079	-73.9239	-33.9716	-29.5255
1375	-38.7986	-73.6128	-33.8257	-28.9697
1400	-38.7321	-73.3239	-33.6711	-29.3285
1425	-38.6854	-73.0601	-33.5177	-29.7527
1450	-38.5507	-72.8144	-33.384	-29.4597
1475	-38.3995	-72.5546	-33.2577	-29.0866
1500	-38.4223	-72.3189	-33.1338	-30.0203
1525	-38.3539	-72.0555	-32.9919	-30.2977
1550	-38.1639	-71.8018	-32.8756	-29.4731
1575	-37.9587	-71.556	-32.7543	-28.5935
1600	-37.8226	-71.2966	-32.6299	-28.3995
1625	-37.7371	-71.0599	-32.5106	-28.5816
1650	-37.5986	-70.8232	-32.408	-28.2544
1675	-37.3633	-70.5457	-32.2871	-27.2172
1700	-37.1855	-70.2778	-32.157	-26.5766
1725	-37.1025	-70.0479	-32.0392	-26.5608
1750	-37.1222	-69.8623	-31.9318	-27.2639
1775	-37.0467	-69.658	-31.8381	-27.2605
1800	-36.9137	-69.4405	-31.7302	-26.7983
1825	-36.7656	-69.231	-31.6318	-26.2583
1850	-36.618	-69.008	-31.523	-25.7617
1875	-36.4775	-68.7934	-31.4165	-25.279
1900	-36.3129	-68.5768	-31.3255	-24.5789
1925	-36.1963	-68.3709	-31.2272	-24.2454
1950	-36.0445	-68.1557	-31.1253	-23.7021
1975	-35.8462	-67.9256	-31.0313	-22.8367
2000	-35.6973	-67.7179	-30.9402	-22.2044
2025	-35.5974	-67.5234	-30.8492	-21.8728
2050	-35.5102	-67.3254	-30.7464	-21.66
2075	-35.4238	-67.142	-30.6577	-21.4401
2100	-35.3027	-66.9421	-30.5631	-21.0054
2125	-35.1649	-66.7534	-30.4726	-20.3946
2150	-35.0341	-66.5693	-30.3932	-19.9019
2175	-34.8791	-66.3716	-30.3093	-19.2472
2200	-34.696	-66.1478	-30.2169	-18.4228
2225	-34.5268	-65.9241	-30.1201	-17.6491
2250	-34.3996	-65.7337	-30.0394	-17.1528
2275	-34.2677	-65.5502	-29.959	-16.6457
2300	-34.0992	-65.3323	-29.8711	-16.0152
2325	-33.9763	-65.1484	-29.786	-15.4613
2350	-33.88	-64.978	-29.7073	-14.9134
2375	-33.8362	-64.8327	-29.6286	-14.7673
2400	-33.7764	-64.6897	-29.553	-14.5896
2425	-33.6622	-64.5145	-29.4741	-14.1556
2450	-33.4989	-64.3209	-29.3974	-13.2527
2475	-33.3444	-64.1211	-29.3204	-12.2766
2500	-33.1655	-63.9028	-29.2508	-11.2903
2525	-32.9922	-63.6887	-29.1835	-10.7549
2550	-32.914	-63.5434	-29.109	-10.6341
2575	-32.9202	-63.4648	-29.0436	-10.4607
2600	-32.8317	-63.3101	-28.9703	-9.69526
2625	-32.6807	-63.113	-28.9007	-8.66858
2650	-32.5458	-62.9206	-28.822	-8.0084
2675	-32.5003	-62.8084	-28.7557	-7.71044
2700	-32.5033	-62.7454	-28.7089	-7.40019
2725	-32.4219	-62.6096	-28.6457	-6.20009
2750	-32.221	-62.3796	-28.5847	-5.2086
2775	-32.0572	-62.1809	-28.5302	-5.02016
2800	-31.9882	-62.0466	-28.4688	-5.11084
2825	-31.9441	-61.946	-28.4106	-4.623
2850	-31.8416	-61.7897	-28.346	-3.68282
2875	-31.7261	-61.623	-28.2798	-3.35332
2900	-31.6518	-61.4859	-28.2266	-3.31719
2925	-31.6779	-61.4395	-28.1666	-3.44336
2950	-31.655	-61.3659	-28.1159	-3.529
2975	-31.5706	-61.2407	-28.0618	-3.44892
3000	-31.4658	-61.0933	-28.0108	-3.46173
3025	-31.4259	-60.997	-27.9596	-3.43457
3050	-31.4052	-60.914	-27.9038	-3.26703
3075	-31.3419	-60.806	-27.8602	-3.1699
3100	-31.2103	-60.6379	-27.8073	-3.25671
3125	-31.125	-60.5127	-27.7644	-3.53611
3150	-31.1311	-60.4578	-27.7117	-4.10748
3175	-31.134	-60.3957	-27.6582	-4.49168
3200	-31.1006	-60.317	-27.6197	-4.54124
3225	-31.0524	-60.2262	-27.5779	-4.57609
3250	-31.0315	-60.149	-27.5255	-4.76803
3275	-31.0187	-60.0838	-27.4837	-4.75637
3300	-31.0345	-60.0433	-27.4393	-4.60978
3325	-31.0104	-59.9764	-27.4038	-4.54308
3350	-30.9812	-59.9045	-27.3634	-4.70199
3375	-30.9445	-59.8191	-27.3204	-5.04292
3400	-30.8787	-59.7091	-27.2696	-5.19582
3425	-30.8629	-59.6351	-27.2167	-5.31644
3450	-30.9038	-59.6074	-27.1696	-5.51319
3475	-30.9488	-59.5856	-27.1257	-6.11926
3500	-30.954	-59.5428	-27.098	-6.68373
3525	-30.9573	-59.4979	-27.061	-6.71465
3550	-30.9939	-59.4682	-27.0207	-6.2832
3575	-31.0198	-59.4239	-26.9763	-5.64727
3600	-31.0207	-59.3596	-26.9298	-5.67634
3625	-30.9725	-59.2732	-26.8873	-6.02614
3650	-30.9449	-59.1951	-26.849	-6.12588
3675	-31.0227	-59.1885	-26.8114	-6.25646
3700	-31.111	-59.1835	-26.774	-6.67656
3725	-31.0674	-59.101	-26.734	-7.27421
3750	-31.0263	-59.0153	-26.688	-7.71933
3775	-31.0591	-58.9718	-26.6506	-8.04788
3800	-31.1685	-58.9599	-26.6147	-8.48701
3825	-31.248	-58.9399	-26.5794	-8.73497
3850	-31.2541	-58.8837	-26.5447	-8.47322
3875	-31.1698	-58.7992	-26.5123	-7.97236
3900	-31.1498	-58.7336	-26.4722	-8.23629
3925	-31.2384	-58.7022	-26.4325	-10.0497
3950	-31.2675	-58.654	-26.4025	-11.534
3975	-31.219	-58.5697	-26.3617	-11.9351
4000	-31.1998	-58.4923	-26.3175	-12.2887
4025	-31.2349	-58.4201	-26.2723	-12.7243
4050	-31.2417	-58.3499	-26.2302	-12.9833
4075	-31.218	-58.2757	-26.1884	-13.0426
4100	-31.1719	-58.2067	-26.1545	-13.4713
4125	-31.152	-58.1348	-26.1202	-14.131
4150	-31.1427	-58.0684	-26.0819	-14.8794
4175	-31.1875	-58.0096	-26.0433	-15.5676
4200	-31.2081	-57.9399	-25.9961	-16.0959
4225	-31.136	-57.855	-25.957	-16.0445
4250	-31.0512	-57.7662	-25.915	-16.1781
4275	-31.0481	-57.6934	-25.8744	-16.9004
4300	-31.0352	-57.6144	-25.8333	-17.3876
4325	-30.9997	-57.538	-25.8024	-17.5063
4350	-30.962	-57.4515	-25.7681	-17.5502
4375	-30.8955	-57.3722	-25.7326	-17.4641
4400	-30.859	-57.3033	-25.695	-17.6803
4425	-30.8333	-57.2383	-25.6602	-18.0494
4450	-30.7833	-57.1597	-25.6212	-18.3164
4475	-30.7506	-57.0955	-25.5874	-18.6572
4500	-30.756	-57.0309	-25.5465	-19.213
4525	-30.6916	-56.9604	-25.5134	-19.0909
4550	-30.6677	-56.889	-25.4809	-19.2445
4575	-30.5967	-56.8036	-25.4461	-19.3331
4600	-30.5213	-56.718	-25.4009	-19.2812
4625	-30.4658	-56.6372	-25.3606	-19.3477
4650	-30.4072	-56.5567	-25.3228	-19.3841
4675	-30.3571	-56.4849	-25.289	-19.4671
4700	-30.3515	-56.4125	-25.2525	-19.7783
4725	-30.3387	-56.3422	-25.2143	-20.1235
4750	-30.2962	-56.2742	-25.1836	-20.1323
4775	-30.2714	-56.1984	-25.1448	-20.3639
4800	-30.2361	-56.1307	-25.1044	-20.5596
4825	-30.2248	-56.0586	-25.0659	-20.8943
4850	-30.1732	-55.982	-25.0325	-20.9035
4875	-30.0981	-55.9002	-24.9997	-20.7645
4900	-30.0242	-55.8306	-24.9695	-20.7133
4925	-30.0022	-55.7615	-24.9319	-20.9926
4950	-30.0308	-55.6972	-24.8857	-21.5565
4975	-30.0074	-55.6248	-24.8499	-21.6826
5000	-30.007	-55.5451	-24.8085	-21.9793
5025	-30.0262	-55.4774	-24.7678	-22.457
5050	-30.0413	-55.4121	-24.7299	-22.9446
5075	-29.99	-55.3336	-24.6904	-22.9795
5100	-29.9008	-55.2325	-24.6459	-22.779
5125	-29.8203	-55.1491	-24.6078	-22.6046
5150	-29.8421	-55.0708	-24.5648	-23.1399
5175	-29.8503	-54.996	-24.5213	-23.5441
5200	-29.8385	-54.9178	-24.4807	-23.8277
5225	-29.8296	-54.8444	-24.4377	-24.1347
5250	-29.8163	-54.7759	-24.3993	-24.3754
5275	-29.8329	-54.6945	-24.355	-24.8235
5300	-29.8172	-54.6014	-24.3131	-25.0699
5325	-29.7047	-54.4906	-24.2537	-24.625
5350	-29.6684	-54.4143	-24.2174	-24.701
5375	-29.6003	-54.3319	-24.1778	-24.5697
5400	-29.5281	-54.2425	-24.1346	-24.4254
5425	-29.4675	-54.1494	-24.095	-24.3698
5450	-29.4653	-54.0774	-24.0515	-24.6592
5475	-29.4276	-54.0154	-24.0182	-24.6351
5500	-29.2933	-53.9225	-23.9781	-23.9859
5525	-29.1608	-53.8115	-23.9305	-23.4655
5550	-29.0967	-53.7189	-23.8833	-23.4061
5575	-29.0714	-53.6488	-23.85	-23.5257
5600	-28.9968	-53.5694	-23.8137	-23.3275
5625	-28.852	-53.4513	-23.7671	-22.7816
5650	-28.7215	-53.3329	-23.7164	-22.3632
5675	-28.6893	-53.2539	-23.6759	-22.4791
5700	-28.6892	-53.196	-23.6454	-22.7189
5725	-28.6434	-53.1192	-23.6082	-22.6866
5750	-28.552	-53.0434	-23.5778	-22.3658
5775	-28.4537	-52.9513	-23.5383	-22.0322
5800	-28.4244	-52.8844	-23.5075	-22.0562
5825	-28.3652	-52.814	-23.4796	-21.9478
5850	-28.2391	-52.7044	-23.4396	-21.5778
5875	-28.1197	-52.5924	-23.3969	-21.2746
5900	-28.0452	-52.5056	-23.3599	-21.1607
5925	-28.0056	-52.4404	-23.3305	-21.1517
5950	-27.9703	-52.3742	-23.298	-21.1533
5975	-27.875	-52.2877	-23.2684	-20.8711
6000	-27.7602	-52.1786	-23.2281	-20.5374
6025	-27.6993	-52.087	-23.1904	-20.4556
6050	-27.6422	-52.0076	-23.1559	-20.394
6075	-27.5772	-51.9321	-23.1247	-20.2649
6100	-27.5032	-51.8569	-23.093	-20.0594
6125	-27.3998	-51.7619	-23.0683	-19.7319
6150	-27.3045	-51.6616	-23.0386	-19.5037
6175	-27.2161	-51.5662	-23.0081	-19.3677
6200	-27.1342	-51.4703	-22.9704	-19.2592
6225	-27.0493	-51.3659	-22.9276	-19.0846
6250	-26.9638	-51.2417	-22.8721	-18.8692
6275	-26.8646	-51.1143	-22.8316	-18.5974
6300	-26.7922	-51.0169	-22.7953	-18.4704
6325	-26.7518	-50.9524	-22.7639	-18.4837
6350	-26.7193	-50.8917	-22.734	-18.4927
6375	-26.6517	-50.8007	-22.7029	-18.3334
6400	-26.5754	-50.69	-22.6551	-18.1463
6425	-26.5057	-50.5924	-22.6166	-18.0122
6450	-26.4599	-50.5189	-22.5864	-17.9599
6475	-26.4181	-50.441	-22.5487	-17.9242
6500	-26.3471	-50.341	-22.511	-17.7459
6525	-26.2604	-50.2268	-22.4693	-17.5278
6550	-26.2235	-50.139	-22.4189	-17.5121
6575	-26.2336	-50.0922	-22.3779	-17.6748
6600	-26.2048	-50.0369	-22.3515	-17.6198
6625	-26.1308	-49.9436	-22.3163	-17.4106
6650	-26.0461	-49.8337	-22.2713	-17.1967
6675	-26.0016	-49.7527	-22.2344	-17.1506
6700	-25.9778	-49.6851	-22.198	-17.1715
6725	-25.937	-49.6099	-22.1621	-17.069
6750	-25.8768	-49.5091	-22.119	-16.8654
6775	-25.8251	-49.4107	-22.0695	-16.7243
6800	-25.8011	-49.35	-22.0336	-16.7373
6825	-25.7866	-49.2877	-21.9919	-16.8163
6850	-25.7581	-49.2188	-21.9546	-16.7784
6875	-25.7092	-49.1349	-21.912	-16.5616
6900	-25.6796	-49.0514	-21.8681	-16.4272
6925	-25.679	-48.9827	-21.8155	-16.5088
6950	-25.6795	-48.9376	-21.7797	-16.621
6975	-25.6674	-48.8882	-21.7473	-16.6377
7000	-25.6464	-48.8243	-21.7097	-16.5425
7025	-25.6214	-48.7573	-21.6692	-16.3835
7050	-25.5931	-48.6744	-21.6228	-16.2802
7075	-25.5875	-48.6141	-21.5826	-16.3286
7100	-25.5726	-48.5603	-21.5521	-16.2938
7125	-25.5838	-48.5173	-21.5172	-16.3042
7150	-25.5685	-48.4517	-21.4779	-16.2273
7175	-25.5556	-48.3933	-21.44	-16.1965
7200	-25.5435	-48.3248	-21.3973	-16.2263
7225	-25.5602	-48.2755	-21.3576	-16.2858
7250	-25.579	-48.2401	-21.328	-16.2562
7275	-25.5917	-48.1934	-21.2898	-16.2239
7300	-25.5916	-48.1381	-21.2526	-16.2588
7325	-25.5752	-48.0768	-21.2161	-16.2286
7350	-25.577	-48.0288	-21.186	-16.2047
7375	-25.5877	-47.9761	-21.1457	-16.1416
7400	-25.6083	-47.9344	-21.1141	-16.1413
7425	-25.622	-47.8924	-21.0833	-16.1981
7450	-25.6516	-47.8541	-21.0493	-16.3986
7475	-25.6744	-47.8152	-21.0191	-16.4715
7500	-25.6965	-47.7809	-20.9936	-16.396
7525	-25.7162	-47.7342	-20.9606	-16.3309
7550	-25.7313	-47.6884	-20.931	-16.3645
7575	-25.7496	-47.648	-20.9037	-16.5132
7600	-25.7842	-47.6256	-20.8845	-16.6654
7625	-25.8145	-47.5958	-20.8599	-16.7063
7650	-25.8483	-47.566	-20.8374	-16.775
7675	-25.8729	-47.5314	-20.8134	-16.9185
7700	-25.8773	-47.4836	-20.7861	-16.9776
7725	-25.9121	-47.4493	-20.7628	-17.1824
7750	-25.9587	-47.4151	-20.7341	-17.4696
7775	-25.9811	-47.3793	-20.7133	-17.5131
7800	-26.0085	-47.3461	-20.6927	-17.7044
7825	-26.0396	-47.3084	-20.6693	-18.0118
7850	-26.0884	-47.2823	-20.6517	-18.4242
7875	-26.1401	-47.2528	-20.6303	-18.9058
7900	-26.1665	-47.2161	-20.609	-19.3571
7925	-26.1439	-47.168	-20.5843	-19.3373
7950	-26.1305	-47.1257	-20.5625	-19.3541
7975	-26.1292	-47.0958	-20.5481	-19.3614
8000	-26.1356	-47.0584	-20.5277	-19.5021
8025	-26.142	-47.0233	-20.5115	-19.7566
8050	-26.1323	-46.9857	-20.4909	-19.9781
8075	-26.1226	-46.9573	-20.4768	-20.1167
8100	-26.0992	-46.9158	-20.4574	-20.0628
8125	-26.0551	-46.8768	-20.4394	-19.7098
8150	-26.0337	-46.8351	-20.419	-19.8015
8175	-26.008	-46.8059	-20.4047	-19.9745
8200	-25.9736	-46.7788	-20.3908	-20.0088
8225	-25.9194	-46.7507	-20.3774	-19.6643
8250	-25.8487	-46.7002	-20.3563	-19.2028
8275	-25.7766	-46.6471	-20.3351	-18.8162
8300	-25.7387	-46.6023	-20.3132	-18.8388
8325	-25.7079	-46.5647	-20.2947	-18.8619
8350	-25.6716	-46.5362	-20.2816	-18.7427
8375	-25.6175	-46.4943	-20.2628	-18.5146
8400	-25.5566	-46.449	-20.2442	-18.2907
8425	-25.496	-46.4016	-20.2255	-18.0698
8450	-25.4629	-46.3617	-20.2053	-18.0048
8475	-25.4288	-46.318	-20.1848	-17.9328
8500	-25.3964	-46.282	-20.167	-17.889
8525	-25.3624	-46.2458	-20.1502	-17.9095
8550	-25.3262	-46.2061	-20.1331	-17.8926
8575	-25.3068	-46.1751	-20.1172	-17.8545
8600	-25.2873	-46.1411	-20.1	-17.75
8625	-25.2325	-46.0871	-20.0766	-17.5095
8650	-25.1998	-46.0471	-20.0573	-17.4769
8675	-25.1647	-46.0059	-20.0416	-17.4156
8700	-25.1379	-45.9607	-20.0179	-17.338
8725	-25.1045	-45.9161	-19.9967	-17.1794
8750	-25.0431	-45.8548	-19.9724	-16.9123
8775	-25.0095	-45.8104	-19.9496	-16.8494
8800	-25.0215	-45.7859	-19.9334	-17.018
8825	-25.0332	-45.7486	-19.9115	-17.1514
8850	-25.0207	-45.7134	-19.8946	-17.0519
8875	-24.9905	-45.6579	-19.8673	-16.9178
8900	-24.9607	-45.608	-19.8426	-16.7974
8925	-24.9722	-45.5737	-19.8253	-16.9225
8950	-24.9749	-45.5433	-19.8075	-16.8775
8975	-24.9285	-45.4938	-19.7852	-16.4554
9000	-24.8693	-45.4435	-19.7616	-15.9691
9025	-24.8565	-45.4009	-19.7381	-15.8782
9050	-24.8713	-45.3624	-19.714	-15.949
9075	-24.8685	-45.3246	-19.6944	-15.8172
9100	-24.8561	-45.2847	-19.6752	-15.6324
9125	-24.842	-45.2423	-19.6533	-15.3756
9150	-24.8641	-45.2156	-19.6379	-15.2896
9175	-24.8758	-45.1818	-19.6171	-15.0457
9200	-24.8767	-45.1384	-19.593	-14.6953
9225	-24.8584	-45.1042	-19.5782	-14.1593
9250	-24.8423	-45.0633	-19.5582	-13.8575
9275	-24.8318	-45.0272	-19.5387	-13.4007
9300	-24.8103	-44.9873	-19.5175	-12.6275
9325	-24.7643	-44.9415	-19.4989	-11.2603
9350	-24.7336	-44.9005	-19.4821	-9.85777
9375	-24.7601	-44.8793	-19.4677	-8.62426
9400	-24.8128	-44.8604	-19.452	-7.24181
9425	-24.8381	-44.8335	-19.437	-5.43132
9450	-24.8059	-44.7956	-19.4177	-4.7073
9475	-24.7459	-44.7544	-19.3975	-5.10935
9500	-24.7252	-44.7253	-19.3822	-6.3732
9525	-24.722	-44.6986	-19.3662	-8.58709
9550	-24.7372	-44.6707	-19.3509	-10.7591
9575	-24.7213	-44.6415	-19.3363	-12.1416
9600	-24.6844	-44.6022	-19.3167	-12.9473
9625	-24.6289	-44.5647	-19.3006	-13.5146
9650	-24.5892	-44.537	-19.2891	-14.2352
9675	-24.5879	-44.5138	-19.2771	-15.1553
9700	-24.6043	-44.4996	-19.2669	-16.0551
9725	-24.6063	-44.4826	-19.2558	-16.6556
9750	-24.579	-44.4566	-19.2427	-16.954
9775	-24.5558	-44.4235	-19.2262	-17.2591
9800	-24.5282	-44.3965	-19.2131	-17.5301
9825	-24.4933	-44.3668	-19.2027	-17.6792
9850	-24.4566	-44.3351	-19.1876	-17.7683
9875	-24.431	-44.3102	-19.179	-17.8836
9900	-24.417	-44.2915	-19.1688	-18.1133
9925	-24.3927	-44.2771	-19.163	-18.3083
9950	-24.3587	-44.2481	-19.1529	-18.4948
9975	-24.3205	-44.2184	-19.1425	-18.6001
10000	-24.3088	-44.2067	-19.1385	-18.7423
10025	-24.3059	-44.1896	-19.1294	-18.899
10050	-24.3012	-44.1716	-19.118	-19.0588
10075	-24.266	-44.1472	-19.1106	-19.0952
10100	-24.2176	-44.1175	-19.1047	-19.0641
10125	-24.1824	-44.0913	-19.0952	-19.0736
10150	-24.1453	-44.0649	-19.0845	-19.0484
10175	-24.1344	-44.0444	-19.073	-19.1531
10200	-24.1071	-44.0278	-19.0697	-19.1854
10225	-24.069	-44.0003	-19.0633	-19.1809
10250	-24.0246	-43.9661	-19.052	-19.1517
10275	-23.9884	-43.9446	-19.0434	-19.1262
10300	-23.9517	-43.9092	-19.031	-19.1141
10325	-23.9202	-43.8712	-19.0128	-19.1364
10350	-23.8685	-43.8381	-19.0004	-19.064
10375	-23.812	-43.8043	-18.9919	-18.9479
10400	-23.7789	-43.7814	-18.9822	-18.9008
10425	-23.7475	-43.7499	-18.9707	-18.8838
10450	-23.6974	-43.7094	-18.9587	-18.8156
10475	-23.6505	-43.6656	-18.9405	-18.7692
10500	-23.6125	-43.632	-18.9281	-18.7275
10525	-23.5913	-43.5993	-18.9147	-18.7314
10550	-23.5634	-43.5703	-18.9031	-18.7068
10575	-23.4971	-43.5133	-18.887	-18.5977
10600	-23.4247	-43.4477	-18.8624	-18.4855
10625	-23.3901	-43.4147	-18.8506	-18.4479
10650	-23.3529	-43.3684	-18.8282	-18.3733
10675	-23.2987	-43.3046	-18.8045	-18.2502
10700	-23.2227	-43.24	-18.7823	-18.0771
10725	-23.1658	-43.1807	-18.7634	-17.9934
10750	-23.1525	-43.1452	-18.7416	-18.0336
10775	-23.1463	-43.1097	-18.7151	-18.065
10800	-23.1021	-43.0536	-18.6908	-17.9605
10825	-23.0376	-42.9813	-18.6635	-17.8137
10850	-22.9824	-42.9153	-18.6373	-17.7189
10875	-22.9386	-42.8493	-18.6119	-17.6708
10900	-22.8843	-42.7836	-18.5832	-17.5592
10925	-22.8079	-42.6906	-18.5469	-17.3851
10950	-22.7464	-42.6105	-18.5164	-17.2459
10975	-22.7262	-42.5612	-18.4897	-17.2248
11000	-22.7222	-42.5215	-18.4655	-17.2346
11025	-22.7045	-42.4757	-18.4413	-17.1877
11050	-22.6579	-42.4123	-18.4119	-17.0482
11075	-22.6271	-42.3456	-18.3786	-16.9837
11100	-22.6217	-42.3015	-18.3554	-16.9934
11125	-22.6082	-42.2559	-18.3275	-16.9571
11150	-22.5647	-42.1846	-18.2931	-16.8167
11175	-22.5101	-42.1074	-18.2628	-16.6477
11200	-22.4586	-42.0323	-18.2281	-16.5067
11225	-22.4409	-41.9752	-18.1979	-16.4828
11250	-22.4362	-41.934	-18.1695	-16.4552
11275	-22.4291	-41.8907	-18.1399	-16.364
11300	-22.4265	-41.8507	-18.117	-16.2721
11325	-22.4076	-41.8064	-18.0953	-16.1465
11350	-22.3816	-41.7422	-18.0628	-16.0524
11375	-22.3609	-41.6825	-18.03	-15.9747
11400	-22.3388	-41.6219	-17.9974	-15.8261
11425	-22.3337	-41.5648	-17.9617	-15.7119
11450	-22.3344	-41.5148	-17.9266	-15.6294
11475	-22.325	-41.4735	-17.9011	-15.5259
11500	-22.3036	-41.4151	-17.869	-15.4038
11525	-22.2957	-41.3725	-17.8464	-15.2639
11550	-22.3057	-41.3334	-17.822	-15.1396
11575	-22.3499	-41.3167	-17.7953	-15.1297
11600	-22.4008	-41.3152	-17.7813	-15.1624
11625	-22.4361	-41.3018	-17.761	-15.1323
11650	-22.4489	-41.2727	-17.7397	-15.0105
11675	-22.4284	-41.2273	-17.7148	-14.7344
11700	-22.412	-41.1734	-17.6887	-14.5214
11725	-22.4212	-41.1331	-17.6602	-14.3791
11750	-22.4641	-41.1146	-17.64	-14.2996
11775	-22.5157	-41.1036	-17.6269	-14.1789
11800	-22.5684	-41.0895	-17.6068	-14.1241
11825	-22.598	-41.0696	-17.5903	-14.0219
11850	-22.6327	-41.0541	-17.5769	-13.9663
11875	-22.6807	-41.04	-17.5614	-13.8306
11900	-22.7362	-41.0377	-17.5545	-13.606
11925	-22.7839	-41.0344	-17.5449	-13.531
11950	-22.8115	-41.0316	-17.5356	-13.6405
11975	-22.8312	-41.0145	-17.5257	-13.8349
12000	-22.8478	-40.9975	-17.5116	-13.8141
12025	-22.8717	-40.9814	-17.4983	-13.5509
12050	-22.8953	-40.9592	-17.4876	-13.7078
12075	-22.9093	-40.9412	-17.4765	-14.3505
12100	-22.9091	-40.9201	-17.4632	-15.0804
12125	-22.9035	-40.8995	-17.4552	-15.5926
12150	-22.8979	-40.8776	-17.4431	-15.9559
12175	-22.8897	-40.8514	-17.4324	-16.2444
12200	-22.8958	-40.8262	-17.4215	-16.713
12225	-22.9104	-40.8044	-17.4131	-17.2605
12250	-22.8628	-40.7774	-17.4047	-17.1072
12275	-22.7868	-40.7538	-17.3975	-16.6683
12300	-22.7432	-40.7363	-17.3885	-16.5435
12325	-22.7114	-40.7055	-17.3767	-16.5963
12350	-22.6612	-40.6782	-17.3665	-16.4921
12375	-22.549	-40.6374	-17.3559	-15.9977
12400	-22.4161	-40.5833	-17.3441	-15.4729
12425	-22.3238	-40.5391	-17.3297	-15.2381
12450	-22.2864	-40.5099	-17.3193	-15.2941
12475	-22.2322	-40.4649	-17.303	-15.2328
12500	-22.1585	-40.4165	-17.2898	-15.0593
12525	-22.0439	-40.3541	-17.2743	-14.7132
12550	-21.9465	-40.2975	-17.2614	-14.5347
12575	-21.8725	-40.2505	-17.2472	-14.4359
12600	-21.813	-40.197	-17.2285	-14.3668
12625	-21.7582	-40.1383	-17.2068	-14.2644
12650	-21.7177	-40.0984	-17.1916	-14.2481
12675	-21.6558	-40.0467	-17.1742	-14.2039
12700	-21.5831	-39.9803	-17.1541	-14.1466
12725	-21.515	-39.9147	-17.1306	-14.0432
12750	-21.4453	-39.8427	-17.107	-13.8774
12775	-21.4112	-39.7895	-17.0836	-13.8589
12800	-21.3922	-39.757	-17.0656	-13.9261
12825	-21.3685	-39.7167	-17.0493	-13.9736
12850	-21.3121	-39.6552	-17.0251	-13.8714
12875	-21.244	-39.5879	-17.0038	-13.7046
12900	-21.1807	-39.5247	-16.9847	-13.5703
12925	-21.1352	-39.4668	-16.9587	-13.5156
12950	-21.1147	-39.4171	-16.9326	-13.5499
12975	-21.1061	-39.3747	-16.9097	-13.5536
13000	-21.0856	-39.3344	-16.8879	-13.4806
13025	-21.0213	-39.2648	-16.86	-13.3061
13050	-20.9712	-39.1934	-16.8372	-13.2521
13075	-20.9397	-39.1444	-16.8107	-13.2111
13100	-20.952	-39.1146	-16.7894	-13.2457
13125	-20.9712	-39.0969	-16.7704	-13.2595
13150	-20.965	-39.0764	-16.7574	-13.1808
13175	-20.9162	-39.0259	-16.7403	-13.0452
13200	-20.8665	-38.9631	-16.7151	-12.9075
13225	-20.8537	-38.9207	-16.69	-12.8372
13250	-20.8513	-38.8825	-16.6641	-12.7217
13275	-20.8572	-38.8552	-16.6444	-12.6429
13300	-20.84	-38.8124	-16.62	-12.5231
13325	-20.8355	-38.7759	-16.6008	-12.4726
13350	-20.8188	-38.7394	-16.5789	-12.3068
13375	-20.8229	-38.7107	-16.5584	-12.2037
13400	-20.8304	-38.69	-16.5404	-12.12
13425	-20.852	-38.6745	-16.522	-12.0964
13450	-20.8851	-38.6652	-16.5056	-12.088
13475	-20.8866	-38.6396	-16.4899	-11.8758
13500	-20.8667	-38.6084	-16.471	-11.5239
13525	-20.8234	-38.5574	-16.4511	-11.1377
13550	-20.8338	-38.5351	-16.4342	-11.0126
13575	-20.8662	-38.5202	-16.4159	-10.9322
13600	-20.9188	-38.5179	-16.3998	-10.8269
13625	-20.9276	-38.4963	-16.3854	-10.5157
13650	-20.9254	-38.467	-16.3654	-10.1925
13675	-20.9445	-38.4507	-16.3481	-9.94171
13700	-20.9878	-38.4456	-16.3349	-9.79468
13725	-21.0541	-38.4501	-16.3202	-9.67545
13750	-21.1199	-38.4544	-16.3101	-9.61337
13775	-21.1745	-38.4564	-16.3012	-9.40633
13800	-21.2194	-38.4606	-16.296	-8.98949
13825	-21.2629	-38.4521	-16.285	-8.39727
13850	-21.2893	-38.4439	-16.2748	-7.93328
13875	-21.3457	-38.4441	-16.269	-7.84192
13900	-21.417	-38.4439	-16.2591	-7.80617
13925	-21.5047	-38.447	-16.2516	-7.69157
13950	-21.5764	-38.4553	-16.2467	-8.5036
13975	-21.6256	-38.4589	-16.2447	-10.1986
14000	-21.6616	-38.4535	-16.235	-11.8297
14025	-21.7081	-38.447	-16.2283	-13.1608
14050	-21.7543	-38.4414	-16.2238	-14.2033
14075	-21.8086	-38.4396	-16.217	-15.1704
14100	-21.8526	-38.442	-16.2184	-15.9229
14125	-21.8906	-38.4427	-16.2193	-16.5755
14150	-21.8841	-38.4541	-16.2229	-16.8511
14175	-21.8795	-38.4583	-16.2245	-17.2105
14200	-21.8664	-38.4627	-16.225	-17.4828
14225	-21.8356	-38.4519	-16.2207	-17.5911
14250	-21.8026	-38.447	-16.22	-17.6093
14275	-21.7635	-38.4413	-16.2204	-17.5166
14300	-21.7291	-38.4387	-16.2193	-17.4085
14325	-21.6924	-38.4281	-16.2182	-17.2655
14350	-21.6468	-38.4172	-16.2132	-17.0935
14375	-21.5852	-38.4003	-16.2111	-16.8726
14400	-21.5252	-38.381	-16.2086	-16.6961
14425	-21.4753	-38.3679	-16.2032	-16.5661
14450	-21.4403	-38.3582	-16.2021	-16.4919
14475	-21.4082	-38.3456	-16.1987	-16.4367
14500	-21.3675	-38.3313	-16.196	-16.3575
14525	-21.3136	-38.3055	-16.1897	-16.2496
14550	-21.2527	-38.2818	-16.1824	-16.0849
14575	-21.2033	-38.2451	-16.1686	-15.9626
14600	-21.1785	-38.2248	-16.1632	-15.9304
14625	-21.157	-38.2106	-16.1575	-15.911
14650	-21.121	-38.1871	-16.1501	-15.8436
14675	-21.0854	-38.1554	-16.14	-15.7755
14700	-21.0389	-38.1344	-16.1335	-15.6261
14725	-20.9966	-38.0944	-16.1187	-15.5375
14750	-20.9624	-38.0607	-16.1078	-15.4991
14775	-20.9501	-38.0403	-16.0937	-15.5346
14800	-20.9494	-38.0271	-16.0862	-15.5814
14825	-20.9369	-38.0113	-16.0801	-15.5741
14850	-20.8809	-37.9758	-16.0684	-15.3823
14875	-20.8226	-37.9142	-16.0455	-15.2317
14900	-20.7755	-37.8622	-16.0255	-15.1112
14925	-20.7605	-37.8322	-16.0114	-15.0871
14950	-20.7522	-37.7954	-15.9932	-15.079
14975	-20.7339	-37.7503	-15.9713	-15.0494
15000	-20.6896	-37.6991	-15.9483	-14.9125
15025	-20.6691	-37.6501	-15.9231	-14.8681
15050	-20.6621	-37.613	-15.8976	-14.854
15075	-20.662	-37.5857	-15.8831	-14.8514
15100	-20.6522	-37.5594	-15.8689	-14.8202
15125	-20.644	-37.5293	-15.8468	-14.8068
15150	-20.6259	-37.4831	-15.823	-14.7654
15175	-20.5967	-37.4331	-15.8038	-14.6495
15200	-20.5599	-37.3757	-15.7727	-14.4778
15225	-20.5303	-37.3096	-15.7437	-14.3427
15250	-20.5401	-37.262	-15.7161	-14.3688
15275	-20.5701	-37.2382	-15.6952	-14.4601
15300	-20.5962	-37.2124	-15.6719	-14.5077
15325	-20.5816	-37.1634	-15.6454	-14.4029
15350	-20.5559	-37.1069	-15.6147	-14.2514
15375	-20.5431	-37.0502	-15.5875	-14.1614
15400	-20.5639	-37.0066	-15.5607	-14.2007
15425	-20.5907	-36.9746	-15.535	-14.2559
15450	-20.6005	-36.9525	-15.5206	-14.1817
15475	-20.5879	-36.9107	-15.498	-14.0185
15500	-20.5715	-36.8574	-15.4714	-13.8363
15525	-20.5657	-36.8132	-15.4456	-13.6682
15550	-20.5812	-36.7791	-15.4226	-13.5496
15575	-20.6153	-36.7486	-15.4021	-13.5323
15600	-20.6387	-36.718	-15.3817	-13.4505
15625	-20.645	-36.6816	-15.3611	-13.2857
15650	-20.6438	-36.645	-15.3407	-13.0644
15675	-20.6419	-36.608	-15.3209	-12.7953
15700	-20.6508	-36.5768	-15.301	-12.5035
15725	-20.6468	-36.5458	-15.2833	-11.9989
15750	-20.6331	-36.5136	-15.2658	-11.3645
15775	-20.6123	-36.4751	-15.2454	-10.6464
15800	-20.6214	-36.4437	-15.2298	-10.1019
15825	-20.6424	-36.407	-15.207	-9.41778
15850	-20.6745	-36.3719	-15.1848	-8.20485
15875	-20.6901	-36.3394	-15.1677	-5.74384
15900	-20.7187	-36.3109	-15.1524	-4.20939
15925	-20.7208	-36.2897	-15.1402	-3.99519
15950	-20.6998	-36.2677	-15.13	-6.7759
15975	-20.677	-36.2427	-15.1205	-9.13492
16000	-20.6785	-36.2165	-15.1051	-11.0134
16025	-20.7137	-36.1978	-15.096	-12.4948
16050	-20.7167	-36.1803	-15.0875	-13.396
16075	-20.6828	-36.1637	-15.0766	-13.8361
16100	-20.6484	-36.1509	-15.074	-14.2483
16125	-20.6421	-36.1382	-15.0674	-14.8164
16150	-20.6241	-36.1277	-15.0597	-15.148
16175	-20.5747	-36.1045	-15.0496	-15.1812
16200	-20.5169	-36.0867	-15.0458	-15.0843
16225	-20.4634	-36.0725	-15.0419	-14.999
16250	-20.4282	-36.0652	-15.0413	-14.9558
16275	-20.4091	-36.0599	-15.0366	-15.0241
16300	-20.3812	-36.0558	-15.037	-15.0625
16325	-20.3718	-36.0546	-15.0387	-15.221
16350	-20.3691	-36.0509	-15.0363	-15.4103
16375	-20.3526	-36.0461	-15.0359	-15.4872
16400	-20.3112	-36.0295	-15.0324	-15.4137
16425	-20.2741	-36.0188	-15.029	-15.3562
16450	-20.2308	-36.0116	-15.0269	-15.2671
16475	-20.1978	-35.9972	-15.0245	-15.2443
16500	-20.1549	-35.9823	-15.0204	-15.1651
16525	-20.1172	-35.9724	-15.0233	-15.0959
16550	-20.086	-35.9558	-15.0222	-15.0731
16575	-20.0628	-35.9483	-15.0177	-15.0711
16600	-20.046	-35.9464	-15.0182	-15.0535
16625	-20.0216	-35.9365	-15.0176	-15.0098
16650	-19.9854	-35.9244	-15.0154	-14.923
16675	-19.9471	-35.9105	-15.0136	-14.8566
16700	-19.9037	-35.8915	-15.0125	-14.7895
16725	-19.853	-35.8616	-15.0038	-14.6999
16750	-19.8229	-35.849	-15.0046	-14.6413
16775	-19.795	-35.838	-15.0038	-14.571
16800	-19.763	-35.8215	-14.9979	-14.4927
16825	-19.7384	-35.8041	-14.994	-14.4628
16850	-19.7142	-35.7909	-14.9906	-14.431
16875	-19.6915	-35.7728	-14.9848	-14.3892
16900	-19.6752	-35.7602	-14.9801	-14.3513
16925	-19.6337	-35.7413	-14.9791	-14.208
16950	-19.5864	-35.7029	-14.9663	-14.0732
16975	-19.54	-35.6699	-14.9543	-13.9499
17000	-19.4928	-35.6318	-14.9422	-13.8172
17025	-19.4565	-35.5974	-14.9318	-13.7167
17050	-19.4136	-35.5582	-14.917	-13.6076
17075	-19.3544	-35.5127	-14.9063	-13.4515
17100	-19.2984	-35.459	-14.8891	-13.3226
17125	-19.2474	-35.4045	-14.8673	-13.2032
17150	-19.2078	-35.3483	-14.8427	-13.0847
17175	-19.1899	-35.3022	-14.8185	-13.0057
17200	-19.1671	-35.2648	-14.7997	-12.9054
17225	-19.1241	-35.2162	-14.7851	-12.7434
17250	-19.0756	-35.1647	-14.7686	-12.583
17275	-19.0151	-35.108	-14.7491	-12.4042
17300	-18.9617	-35.0471	-14.7302	-12.2696
17325	-18.9189	-34.9911	-14.7067	-12.1679
17350	-18.8875	-34.9348	-14.6792	-12.1002
17375	-18.866	-34.8849	-14.6583	-12.0054
17400	-18.8421	-34.8357	-14.6307	-11.8583
17425	-18.7779	-34.7632	-14.6068	-11.5927
17450	-18.7121	-34.692	-14.5842	-11.357
17475	-18.6691	-34.6316	-14.557	-11.2327
17500	-18.6619	-34.5832	-14.5287	-11.2093
17525	-18.6625	-34.5423	-14.5043	-11.1557
17550	-18.6314	-34.4874	-14.4793	-10.9798
17575	-18.5812	-34.4145	-14.4534	-10.7742
17600	-18.5504	-34.3594	-14.4297	-10.6681
17625	-18.5509	-34.3251	-14.4072	-10.651
17650	-18.5489	-34.2826	-14.3795	-10.5982
17675	-18.5192	-34.2309	-14.3555	-10.4282
17700	-18.473	-34.1682	-14.3292	-10.2195
17725	-18.4449	-34.1204	-14.3053	-10.0578
17750	-18.4365	-34.0823	-14.2809	-9.90645
17775	-18.4409	-34.0437	-14.2544	-9.78463
17800	-18.4463	-34.0054	-14.2327	-9.69586
17825	-18.451	-33.9733	-14.2136	-9.66246
17850	-18.4611	-33.9473	-14.1937	-9.66229
17875	-18.4521	-33.9202	-14.1782	-9.56191
17900	-18.4224	-33.8775	-14.159	-9.3615
17925	-18.4201	-33.8538	-14.1414	-9.24451
17950	-18.4546	-33.8435	-14.1245	-9.21818
17975	-18.5137	-33.8379	-14.1036	-9.23027
18000	-18.5381	-33.8099	-14.0797	-9.16438
18025	-18.5062	-33.769	-14.0652	-8.97454
18050	-18.4635	-33.7331	-14.0525	-8.78216
18075	-18.4721	-33.7352	-14.0451	-8.64773
18100	-18.517	-33.7372	-14.0317	-8.56217
18125	-18.5808	-33.7242	-14.0128	-8.61113
18150	-18.6279	-33.7047	-13.9951	-8.72871
18175	-18.6325	-33.6836	-13.9816	-8.73132
18200	-18.6397	-33.684	-13.9743	-8.63023
18225	-18.6624	-33.6924	-13.972	-8.54373
18250	-18.7096	-33.6925	-13.9636	-8.65317
18275	-18.7889	-33.7088	-13.9559	-8.99048
18300	-18.8531	-33.7182	-13.9444	-9.20861
18325	-18.8864	-33.7117	-13.9343	-9.16063
18350	-18.902	-33.7028	-13.9245	-9.06703
18375	-18.9269	-33.6962	-13.916	-9.16748
18400	-18.9958	-33.696	-13.9082	-9.54463
18425	-19.1131	-33.7233	-13.9048	-10.0635
18450	-19.2087	-33.7358	-13.8997	-10.5035
18475	-19.2412	-33.7304	-13.8934	-10.7369
18500	-19.2605	-33.7259	-13.8825	-11.0379
18525	-19.3263	-33.7368	-13.8795	-11.6228
18550	-19.4321	-33.7475	-13.876	-12.5262
18575	-19.4645	-33.7592	-13.8735	-13.0884
18600	-19.4423	-33.7587	-13.872	-13.2605
18625	-19.4159	-33.7432	-13.8638	-13.3001
18650	-19.4274	-33.7319	-13.8543	-13.5844
18675	-19.4528	-33.7148	-13.8454	-14.1228
18700	-19.4923	-33.7028	-13.8401	-14.8222
18725	-19.5264	-33.6917	-13.8318	-15.5246
18750	-19.5169	-33.6722	-13.8249	-15.8738
18775	-19.4192	-33.6512	-13.8187	-15.026
18800	-19.3106	-33.6246	-13.8132	-14.0584
18825	-19.2278	-33.5901	-13.8016	-13.4226
18850	-19.1432	-33.5598	-13.785	-12.8407
18875	-19.0371	-33.5232	-13.7767	-12.1796
18900	-18.9263	-33.4792	-13.7687	-11.6125
18925	-18.8417	-33.4368	-13.7593	-11.2674
18950	-18.7863	-33.3994	-13.7462	-11.0695
18975	-18.7549	-33.3666	-13.7294	-10.9488
19000	-18.7192	-33.3369	-13.7137	-10.8172
19025	-18.6423	-33.2926	-13.7024	-10.5329
19050	-18.5329	-33.2392	-13.6899	-10.1184
19075	-18.402	-33.1708	-13.674	-9.57149
19100	-18.2942	-33.1068	-13.6633	-9.1274
19125	-18.2255	-33.0619	-13.6528	-8.96318
19150	-18.1736	-33.019	-13.6395	-8.9035
19175	-18.1146	-32.9673	-13.6227	-8.73934
19200	-18.0373	-32.9058	-13.6014	-8.44013
19225	-17.9435	-32.8349	-13.5873	-8.13686
19250	-17.8625	-32.7598	-13.5663	-8.04314
19275	-17.848	-32.734	-13.5518	-8.23601
19300	-17.8518	-32.7068	-13.5348	-8.37198
19325	-17.8602	-32.6822	-13.516	-8.3545
19350	-17.8153	-32.63	-13.4971	-8.17397
19375	-17.7274	-32.5603	-13.4822	-7.94945
19400	-17.639	-32.4889	-13.4621	-7.78589
19425	-17.596	-32.4412	-13.4466	-7.72961
19450	-17.5898	-32.4087	-13.4316	-7.70773
19475	-17.5974	-32.385	-13.4127	-7.82516
19500	-17.563	-32.3361	-13.3928	-7.93712
19525	-17.4981	-32.2685	-13.3718	-7.84936
19550	-17.4505	-32.2154	-13.3478	-7.63517
19575	-17.424	-32.1699	-13.328	-7.45308
19600	-17.4354	-32.1459	-13.3086	-7.51504
19625	-17.4675	-32.1371	-13.2892	-7.84141
19650	-17.4824	-32.1142	-13.2713	-8.10744
19675	-17.4704	-32.0798	-13.2512	-8.11117
19700	-17.4405	-32.0342	-13.2298	-7.9591
19725	-17.4067	-31.9835	-13.2081	-7.86192
19750	-17.3943	-31.9478	-13.1866	-7.90059
19775	-17.4101	-31.9303	-13.1686	-8.00892
19800	-17.4351	-31.9167	-13.1518	-8.09502
19825	-17.4552	-31.9001	-13.1324	-8.15915
19850	-17.4572	-31.8637	-13.1102	-8.28616
19875	-17.4512	-31.8291	-13.088	-8.3871
19900	-17.4581	-31.8014	-13.0667	-8.44211
19925	-17.492	-31.7925	-13.0498	-8.50377
19950	-17.5458	-31.7921	-13.0345	-8.67457
19975	-17.5881	-31.7812	-13.0168	-8.93729
20000	-17.5802	-31.7431	-12.9916	-9.03888
20025	-17.5478	-31.6911	-12.9661	-8.96114
20050	-17.5364	-31.6415	-12.9377	-8.90379
20075	-17.5797	-31.6245	-12.9168	-9.07915
20100	-17.6619	-31.6432	-12.9117	-9.41533
20125	-17.7315	-31.6478	-12.9005	-9.66888
20150	-17.7655	-31.6281	-12.8816	-9.76352
20175	-17.77	-31.6011	-12.8642	-9.78175
20200	-17.7838	-31.5767	-12.8476	-9.90803
20225	-17.8296	-31.5661	-12.8321	-10.1989
20250	-17.8728	-31.5557	-12.8181	-10.4766
20275	-17.8991	-31.5397	-12.8053	-10.6089
20300	-17.9223	-31.5236	-12.7943	-10.6693
20325	-17.9216	-31.495	-12.7775	-10.5977
20350	-17.9032	-31.4607	-12.7612	-10.4126
20375	-17.8748	-31.4195	-12.7427	-10.1891
20400	-17.8431	-31.3832	-12.7246	-10.0488
20425	-17.8367	-31.3642	-12.7151	-10.0722
20450	-17.8736	-31.3613	-12.7095	-10.268
20475	-17.9034	-31.3519	-12.6981	-10.3079
20500	-17.8789	-31.3161	-12.6834	-9.96919
20525	-17.7843	-31.2506	-12.6591	-9.34357
20550	-17.6654	-31.1818	-12.6394	-8.75917
20575	-17.6073	-31.1512	-12.6286	-8.48373
20600	-17.6099	-31.1499	-12.6278	-8.39613
20625	-17.6352	-31.1603	-12.6286	-8.33048
20650	-17.6332	-31.1492	-12.6211	-8.14898
20675	-17.564	-31.0974	-12.6048	-7.70169
20700	-17.4573	-31.035	-12.5874	-7.07716
20725	-17.3681	-30.9869	-12.5766	-6.48217
20750	-17.3119	-30.9547	-12.5684	-6.03504
20775	-17.2927	-30.9385	-12.5631	-5.87091
20800	-17.3045	-30.9375	-12.5595	-5.88877
20825	-17.2867	-30.9152	-12.5506	-5.6998
20850	-17.2194	-30.8672	-12.5359	-5.18083
20875	-17.1306	-30.811	-12.5226	-4.55924
20900	-17.0632	-30.7642	-12.5116	-4.21702
20925	-17.0478	-30.7487	-12.5053	-4.18109
20950	-17.0583	-30.7485	-12.5037	-4.14632
20975	-17.048	-30.7302	-12.4943	-3.89654
21000	-16.9994	-30.6886	-12.4831	-3.51719
21025	-16.9348	-30.6453	-12.4748	-3.22467
21050	-16.873	-30.5985	-12.4603	-2.94411
21075	-16.8407	-30.5623	-12.4474	-2.5612
21100	-16.8384	-30.5462	-12.4388	-2.27877
21125	-16.8618	-30.5523	-12.4357	-2.52565
21150	-16.8668	-30.5415	-12.4277	-3.01045
21175	-16.8474	-30.522	-12.4208	-3.31591
21200	-16.8154	-30.4949	-12.4121	-3.32104
21225	-16.8038	-30.4753	-12.4048	-3.35302
21250	-16.8299	-30.4733	-12.3966	-3.72476
21275	-16.8669	-30.4757	-12.3861	-4.27028
21300	-16.8815	-30.4704	-12.3812	-4.57203
21325	-16.8567	-30.4398	-12.3692	-4.50221
21350	-16.8299	-30.4114	-12.3555	-4.42676
21375	-16.8285	-30.3965	-12.3459	-4.60577
21400	-16.857	-30.3926	-12.3394	-4.97905
21425	-16.8999	-30.3944	-12.3291	-5.28121
21450	-16.9463	-30.3973	-12.3217	-5.53272
21475	-16.9785	-30.3956	-12.3121	-5.80161
21500	-17.0004	-30.3947	-12.3051	-6.19197
21525	-17.0298	-30.4003	-12.3017	-6.62684
21550	-17.0785	-30.4014	-12.2931	-7.06486
21575	-17.1437	-30.407	-12.2844	-7.50273
21600	-17.2165	-30.4165	-12.2783	-7.99304
21625	-17.2622	-30.4187	-12.2693	-8.37808
21650	-17.2728	-30.4088	-12.2617	-8.52376
21675	-17.2788	-30.396	-12.2534	-8.56765
21700	-17.2991	-30.3811	-12.243	-8.72252
21725	-17.3681	-30.3858	-12.2353	-9.27409
21750	-17.4632	-30.3958	-12.2305	-10.0643
21775	-17.5664	-30.4012	-12.2226	-10.8902
21800	-17.6432	-30.405	-12.2188	-11.4526
21825	-17.6851	-30.4036	-12.213	-11.7925
21850	-17.706	-30.3918	-12.2033	-12.0915
21875	-17.7231	-30.3819	-12.1955	-12.3755
21900	-17.7083	-30.3591	-12.1817	-12.4162
21925	-17.7164	-30.3472	-12.1738	-12.5641
21950	-17.7359	-30.3414	-12.1679	-12.7855
21975	-17.7515	-30.3269	-12.1601	-13.0286
22000	-17.735	-30.3081	-12.1501	-13.0464
22025	-17.6806	-30.2851	-12.1417	-12.803
22050	-17.615	-30.2609	-12.1319	-12.5187
22075	-17.5707	-30.2396	-12.1254	-12.409
22100	-17.5406	-30.219	-12.1195	-12.3713
22125	-17.514	-30.198	-12.1106	-12.3234
22150	-17.4652	-30.1745	-12.1016	-12.1218
22175	-17.3902	-30.1394	-12.0893	-11.7852
22200	-17.3108	-30.104	-12.0778	-11.4361
22225	-17.2262	-30.0628	-12.0651	-11.0919
22250	-17.1536	-30.0251	-12.0562	-10.8637
22275	-17.088	-29.9885	-12.045	-10.7365
22300	-17.0403	-29.9592	-12.0356	-10.713
22325	-16.9811	-29.9255	-12.026	-10.5856
22350	-16.9044	-29.8816	-12.012	-10.3151
22375	-16.8091	-29.8193	-11.9936	-9.97468
22400	-16.7236	-29.7628	-11.9758	-9.75454
22425	-16.6604	-29.7172	-11.9625	-9.67056
22450	-16.6122	-29.6745	-11.9481	-9.6314
22475	-16.5574	-29.6293	-11.9318	-9.5391
22500	-16.4842	-29.5734	-11.9141	-9.37209
22525	-16.4008	-29.5041	-11.8969	-9.21641
22550	-16.3216	-29.4366	-11.8758	-9.08622
22575	-16.2691	-29.3876	-11.8588	-9.00393
22600	-16.2463	-29.36	-11.8462	-8.99717
22625	-16.2157	-29.3327	-11.837	-9.01425
22650	-16.1558	-29.2779	-11.8219	-8.99851
22675	-16.0753	-29.1965	-11.7963	-8.94357
22700	-16.0015	-29.1212	-11.7682	-8.86419
22725	-15.9658	-29.0687	-11.7465	-8.84121
22750	-15.9442	-29.0252	-11.7234	-8.8542
22775	-15.9074	-28.9752	-11.706	-8.83566
22800	-15.85	-28.9088	-11.682	-8.77827
22825	-15.7931	-28.8386	-11.6523	-8.71927
22850	-15.7544	-28.7772	-11.6262	-8.69821
22875	-15.7319	-28.7271	-11.6008	-8.73043
22900	-15.7035	-28.6825	-11.5772	-8.75885
22925	-15.673	-28.6351	-11.5558	-8.7648
22950	-15.6597	-28.599	-11.5371	-8.78628
22975	-15.6333	-28.5549	-11.5178	-8.74815
23000	-15.5956	-28.4944	-11.4919	-8.69835
23025	-15.5383	-28.4152	-11.4585	-8.65575
23050	-15.4916	-28.3417	-11.4255	-8.66285
23075	-15.4726	-28.2845	-11.3913	-8.69223
23100	-15.4732	-28.2422	-11.3596	-8.69538
23125	-15.4622	-28.2045	-11.3383	-8.62493
23150	-15.4249	-28.1494	-11.3156	-8.53376
23175	-15.3875	-28.0861	-11.2859	-8.52299
23200	-15.3679	-28.0284	-11.2532	-8.55616
23225	-15.3803	-27.9841	-11.219	-8.63184
23250	-15.3898	-27.9503	-11.1932	-8.66443
23275	-15.3836	-27.9105	-11.1673	-8.66763
23300	-15.357	-27.8538	-11.1383	-8.61462
23325	-15.326	-27.7821	-11.1014	-8.50912
23350	-15.3054	-27.7176	-11.0682	-8.35759
23375	-15.3009	-27.6636	-11.0327	-8.25745
23400	-15.3091	-27.6215	-11.0026	-8.27455
23425	-15.3111	-27.5803	-10.9768	-8.31904
23450	-15.3062	-27.531	-10.9466	-8.30847
23475	-15.3056	-27.4805	-10.9139	-8.24983
23500	-15.3109	-27.4296	-10.881	-8.21622
23525	-15.3199	-27.3833	-10.8483	-8.24074
23550	-15.3396	-27.3413	-10.8198	-8.29864
23575	-15.3489	-27.2903	-10.7881	-8.22779
23600	-15.3555	-27.2371	-10.7549	-8.04484
23625	-15.3611	-27.1909	-10.7259	-7.85517
23650	-15.3587	-27.1421	-10.6946	-7.69504
23675	-15.3651	-27.0875	-10.6619	-7.57474
23700	-15.3869	-27.0406	-10.6314	-7.41639
23725	-15.4128	-26.9919	-10.5982	-7.24364
23750	-15.45	-26.9551	-10.5715	-7.18419
23775	-15.4689	-26.9147	-10.5462	-7.1278
23800	-15.462	-26.8615	-10.5119	-6.85743
23825	-15.4623	-26.8016	-10.4769	-6.29847
23850	-15.4592	-26.7472	-10.4407	-5.4764
23875	-15.4535	-26.7042	-10.4176	-4.67651
23900	-15.4535	-26.6748	-10.4003	-4.10822
23925	-15.4557	-26.6477	-10.3824	-3.58114
23950	-15.4383	-26.6119	-10.3609	-3.13841
23975	-15.3967	-26.5628	-10.3364	-2.90276
24000	-15.3379	-26.5086	-10.3091	-2.77843
24025	-15.2927	-26.4633	-10.2878	-2.70077
24050	-15.2652	-26.4326	-10.2749	-2.70356
24075	-15.245	-26.4074	-10.2607	-3.33384
24100	-15.1995	-26.3749	-10.2503	-4.70089
24125	-15.1248	-26.3263	-10.2361	-5.43622
24150	-15.044	-26.2769	-10.2203	-6.094
24175	-14.9636	-26.2334	-10.2112	-6.75574
24200	-14.9004	-26.1916	-10.1999	-7.26866
24225	-14.8438	-26.1629	-10.1943	-7.49342
24250	-14.7872	-26.1337	-10.1907	-7.52693
24275	-14.7227	-26.1008	-10.188	-7.53127
24300	-14.643	-26.0608	-10.1856	-7.59074
24325	-14.5538	-26.0178	-10.1862	-7.67938
24350	-14.4773	-25.9836	-10.1899	-7.74347
24375	-14.4147	-25.9642	-10.1977	-7.78058
24400	-14.364	-25.9609	-10.2157	-7.81733
24425	-14.3142	-25.9525	-10.2283	-7.86424
24450	-14.2397	-25.9265	-10.2434	-7.8386
24475	-14.1394	-25.8676	-10.2492	-7.73186
24500	-14.0407	-25.8048	-10.2538	-7.62242
24525	-13.9714	-25.7828	-10.2733	-7.58552
24550	-13.928	-25.7838	-10.3001	-7.6242
24575	-13.8863	-25.7833	-10.3259	-7.65837
24600	-13.8179	-25.763	-10.3546	-7.61343
24625	-13.732	-25.716	-10.3798	-7.52338
24650	-13.6625	-25.6819	-10.4046	-7.46313
24675	-13.6218	-25.684	-10.4402	-7.44105
24700	-13.587	-25.6909	-10.4763	-7.42101
24725	-13.5411	-25.6869	-10.5126	-7.38417
24750	-13.4878	-25.682	-10.5611	-7.34461
24775	-13.43	-25.663	-10.6083	-7.31556
24800	-13.3839	-25.6576	-10.6573	-7.29212
24825	-13.3417	-25.6479	-10.6973	-7.25683
24850	-13.3066	-25.6419	-10.7397	-7.21631
24875	-13.2842	-25.656	-10.7886	-7.18543
24900	-13.2662	-25.6825	-10.8502	-7.16588
24925	-13.2275	-25.685	-10.9192	-7.13025
24950	-13.1722	-25.6616	-10.9879	-7.07554
24975	-13.1325	-25.6585	-11.0644	-7.03227
25000	-13.1215	-25.6872	-11.1344	-7.0141
25025	-13.1305	-25.7424	-11.2053	-6.99927
25050	-13.1223	-25.7694	-11.2741	-6.95997
25075	-13.0835	-25.751	-11.3469	-6.90145
25100	-13.0371	-25.7197	-11.4245	-6.84938
25125	-13.018	-25.7313	-11.513	-6.83344
25150	-13.0359	-25.8038	-11.6203	-6.85252
25175	-13.0656	-25.8918	-11.7254	-6.86562
25200	-13.0814	-25.9551	-11.8327	-6.84205
25225	-13.063	-25.9544	-11.9241	-6.7728
25250	-13.0311	-25.928	-12.0169	-6.69008
25275	-13.0181	-25.9334	-12.1266	-6.64643
25300	-13.0378	-25.9958	-12.2552	-6.66242
25325	-13.0725	-26.0811	-12.3846	-6.70005
25350	-13.1015	-26.1524	-12.5109	-6.7047
25375	-13.1096	-26.1821	-12.6263	-6.65491
25400	-13.097	-26.1704	-12.732	-6.57675
25425	-13.0965	-26.181	-12.8588	-6.52625
25450	-13.1194	-26.2327	-12.9613	-6.51942
25475	-13.1627	-26.3199	-12.8684	-6.53516
25500	-13.2161	-26.4225	-12.7487	-6.54721
25525	-13.2547	-26.4936	-12.6338	-6.53766
25550	-13.2713	-26.5176	-12.523	-6.50813
25575	-13.2794	-26.5212	-12.4293	-6.47481
25600	-13.3095	-26.5652	-12.3422	-6.46207
25625	-13.3754	-26.6784	-12.2632	-6.47481
25650	-13.4583	-26.825	-12.2175	-6.4993
25675	-13.512	-26.9098	-12.1784	-6.5036
25700	-13.5329	-26.9215	-12.1289	-6.47865
25725	-13.5605	-26.9412	-12.0766	-6.44802
25750	-13.6319	-27.0509	-12.0426	-6.45357
25775	-13.7472	-27.2487	-12.0159	-6.50614
25800	-13.8655	-27.4478	-11.9959	-6.57099
25825	-13.9386	-27.5482	-11.9708	-6.59897
25850	-13.9722	-27.5637	-11.9514	-6.58553
25875	-14.0084	-27.5845	-11.9458	-6.56831
25900	-14.0828	-27.6847	-11.9421	-6.58264
25925	-14.1973	-27.8664	-11.9343	-6.63473
25950	-14.3218	-28.0665	-11.9374	-6.69052
25975	-14.4258	-28.2225	-11.975	-6.7196
26000	-14.5049	-28.3212	-12.0362	-6.72422
26025	-14.5819	-28.4069	-12.1049	-6.73581
26050	-14.6783	-28.5312	-12.1643	-6.77626
26075	-14.8027	-28.7188	-12.2162	-6.84223
26100	-14.9366	-28.9312	-12.2507	-6.91199
26125	-15.0664	-29.1298	-12.2827	-6.96994
26150	-15.1644	-29.2553	-12.3184	-6.99875
26175	-15.2445	-29.3383	-12.3743	-7.01286
26200	-15.3365	-29.4467	-12.4462	-7.03283
26225	-15.4612	-29.633	-12.5297	-7.07852
26250	-15.6231	-29.9043	-12.621	-7.15583
26275	-15.7988	-30.1997	-12.724	-7.24044
26300	-15.9439	-30.4168	-12.8356	-7.30323
26325	-16.0281	-30.4956	-12.7301	-7.32641
26350	-16.108	-30.5602	-12.6318	-7.35126
26375	-16.23	-30.7261	-12.6725	-7.40923
26400	-16.3978	-31.0026	-12.843	-7.49616
26425	-16.5507	-31.2462	-13.0008	-7.55938
26450	-16.6451	-31.3462	-13.0093	-7.58635
26475	-16.6796	-31.3023	-12.8692	-7.57976
26500	-16.7203	-31.2723	-12.7254	-7.57666
26525	-16.8314	-31.4047	-12.7253	-7.61428
26550	-17.0024	-31.6812	-12.8587	-7.69471
26575	-17.187	-31.983	-13.0284	-7.79691
26600	-17.3263	-32.1753	-13.1115	-7.88471
26625	-17.4104	-32.2403	-13.0888	-7.93132
26650	-17.477	-32.268	-13.05	-7.95348
26675	-17.5567	-32.3334	-13.0562	-7.97404
26700	-17.6607	-32.4564	-13.1368	-8.02407
26725	-17.7918	-32.6361	-13.2423	-8.107
26750	-17.9105	-32.7823	-13.3024	-8.18099
26775	-17.9792	-32.8219	-13.2792	-8.20494
26800	-18.0226	-32.8064	-13.2077	-8.21015
26825	-18.0718	-32.8135	-13.1453	-8.22168
26850	-18.1694	-32.9307	-13.1613	-8.27229
26875	-18.31	-33.1486	-13.2895	-8.34209
26900	-18.4321	-33.3284	-13.4174	-8.38339
26925	-18.4853	-33.3498	-13.4258	-8.3914
26950	-18.4862	-33.255	-13.3181	-8.38041
26975	-18.4694	-33.1263	-13.2005	-8.3658
27000	-18.4882	-33.0864	-13.194	-8.36548
27025	-18.5628	-33.1742	-13.315	-8.37895
27050	-18.6498	-33.2848	-13.4398	-8.3993
27075	-18.6901	-33.2832	-13.4177	-8.42158
27100	-18.6644	-33.1391	-13.2762	-8.4124
27125	-18.6221	-32.9682	-13.1503	-8.37491
27150	-18.6134	-32.88	-13.126	-8.3481
27175	-18.6484	-32.8885	-13.1786	-8.35227
27200	-18.6756	-32.8795	-13.2179	-8.37399
27225	-18.6564	-32.7656	-13.1626	-8.38403
27250	-18.591	-32.5567	-13.0408	-8.34475
27275	-18.542	-32.3891	-12.9458	-8.29489
27300	-18.5516	-32.3488	-12.9291	-8.29272
27325	-18.5904	-32.3756	-12.9806	-8.33172
27350	-18.6305	-32.4032	-13.0611	-8.38926
27375	-18.6259	-32.339	-13.0915	-8.40104
27400	-18.5599	-32.146	-12.9997	-8.36107
27425	-18.4561	-31.8741	-12.8138	-8.3171
27450	-18.3679	-31.6386	-12.6467	-8.29638
27475	-18.3426	-31.538	-12.5972	-8.32491
27500	-18.3785	-31.5676	-12.6569	-8.38404
27525	-18.4165	-31.6034	-12.7224	-8.44038
27550	-18.376	-31.4774	-12.6671	-8.46854
27575	-18.2513	-31.1748	-12.4856	-8.49782
27600	-18.1162	-30.8576	-12.309	-8.49004
27625	-18.0542	-30.6948	-12.2588	-8.50881
27650	-18.0794	-30.7137	-12.3325	-8.57804
27675	-18.123	-30.7651	-12.3454	-8.7341
27700	-18.0986	-30.677	-12.3003	-8.89417
27725	-17.9952	-30.4253	-12.2003	-9.05056
27750	-17.8755	-30.1422	-12.0252	-9.18151
27775	-17.8012	-29.9555	-11.9405	-9.34051
27800	-17.7829	-29.8821	-11.9191	-9.60609
27825	-17.7768	-29.8377	-11.8416	-9.89584
27850	-17.7435	-29.7374	-11.7621	-10.1883
27875	-17.6692	-29.5566	-11.6868	-10.4388
27900	-17.5848	-29.3554	-11.6168	-10.7121
27925	-17.5232	-29.2051	-11.5549	-10.9984
27950	-17.5014	-29.135	-11.5065	-11.3507
27975	-17.4984	-29.1083	-11.4563	-11.6272
28000	-17.481	-29.0581	-11.3979	-11.7871
28025	-17.4407	-28.9667	-11.356	-11.8851
28050	-17.3814	-28.8436	-11.3246	-11.9317
28075	-17.3332	-28.75	-11.2976	-11.9036
28100	-17.3181	-28.7239	-11.2706	-11.8536
28125	-17.3177	-28.731	-11.2325	-11.7193
28150	-17.304	-28.7134	-11.1928	-11.5392
28175	-17.2562	-28.6295	-11.1646	-11.3484
28200	-17.1911	-28.5141	-11.1522	-11.1252
28225	-17.1379	-28.4202	-11.1431	-10.9279
28250	-17.126	-28.4097	-11.1312	-10.7521
28275	-17.1605	-28.4882	-11.1357	-10.6777
28300	-17.1979	-28.5722	-11.1561	-10.6368
28325	-17.1872	-28.5643	-11.1776	-10.5185
28350	-17.1181	-28.4352	-11.1658	-10.3826
28375	-17.0598	-28.33	-11.1503	-10.2059
28400	-17.0521	-28.323	-11.1335	-10.1087
28425	-17.0956	-28.418	-11.1295	-10.0788
28450	-17.1599	-28.554	-11.1504	-10.0734
28475	-17.1845	-28.6106	-11.1803	-10.0391
28500	-17.1589	-28.5673	-11.2108	-9.95546
28525	-17.1335	-28.5243	-11.2504	-9.87547
28550	-17.1445	-28.5514	-11.223	-9.85867
28575	-17.1958	-28.6607	-11.2744	-9.87546
28600	-17.2587	-28.7947	-11.3595	-9.87184
28625	-17.3081	-28.9018	-11.4367	-9.83816
28650	-17.3361	-28.9668	-11.4734	-9.78107
28675	-17.3502	-29.0012	-11.4777	-9.74671
28700	-17.3665	-29.0418	-11.4763	-9.70441
28725	-17.4024	-29.1205	-11.4991	-9.68587
28750	-17.4668	-29.2575	-11.5551	-9.68189
28775	-17.5422	-29.4174	-11.6153	-9.67236
28800	-17.5978	-29.5344	-11.6368	-9.66909
28825	-17.6091	-29.5624	-11.5876	-9.61602
28850	-17.6121	-29.5734	-11.5328	-9.55457
28875	-17.6653	-29.6873	-11.564	-9.53253
28900	-17.7745	-29.9184	-11.7066	-9.54844
28925	-17.8981	-30.1768	-11.8732	-9.59176
28950	-17.9781	-30.3475	-11.9684	-9.56969
28975	-17.9989	-30.3905	-11.9563	-9.55379
29000	-18.0111	-30.416	-11.9142	-9.51782
29025	-18.0714	-30.5414	-11.9478	-9.50088
29050	-18.1927	-30.7946	-12.0956	-9.52402
29075	-18.3311	-31.0785	-12.27	-9.60488
29100	-18.4361	-31.2924	-12.3733	-9.67196
29125	-18.489	-31.3984	-12.3863	-9.6864
29150	-18.5117	-31.4385	-12.3652	-9.71005
29175	-18.5379	-31.4927	-12.391	-9.68654
29200	-18.5936	-31.6101	-12.4825	-9.68543
29225	-18.6826	-31.7906	-12.5809	-9.74268
29250	-18.7796	-31.9846	-12.6524	-9.80954
29275	-18.8622	-32.1512	-12.7162	-9.84839
29300	-18.929	-32.2854	-12.7803	-9.87133
29325	-18.9993	-32.4275	-12.847	-9.88716
29350	-19.0994	-32.6321	-12.9458	-9.92542
29375	-19.2301	-32.8979	-13.0795	-9.99916
29400	-19.3273	-33.1003	-13.1938	-10.0075
29425	-19.3727	-33.1943	-13.2569	-10.0097
29450	-19.3828	-33.2134	-13.2567	-9.98435
29475	-19.3891	-33.2213	-13.2193	-9.96436
29500	-19.4197	-33.2782	-13.2271	-9.97876
29525	-19.495	-33.434	-13.3399	-10.0004
29550	-19.6	-33.6487	-13.4928	-10.0485
29575	-19.6719	-33.7872	-13.542	-10.1165
29600	-19.6897	-33.8073	-13.4718	-10.1698
29625	-19.6856	-33.7829	-13.3851	-10.1963
29650	-19.7093	-33.8234	-13.3898	-10.2192
29675	-19.8044	-34.0149	-13.5304	-10.2958
29700	-19.9397	-34.287	-13.7117	-10.4111
29725	-20.0144	-34.4317	-13.7845	-10.4839
29750	-19.9878	-34.363	-13.7254	-10.5468
29775	-19.9472	-34.2681	-13.6411	-10.5479
29800	-19.9588	-34.2862	-13.6379	-10.5461
29825	-20.0316	-34.4382	-13.7457	-10.5438
29850	-20.1303	-34.6438	-13.8964	-10.5693
29875	-20.1752	-34.7337	-13.9697	-10.602
29900	-20.1481	-34.6782	-13.9155	-10.5027
29925	-20.089	-34.5514	-13.7873	-10.3895
29950	-20.0265	-34.4184	-13.661	-10.2684
29975	-20.0106	-34.3873	-13.6408	-10.2009
30000	-20.0585	-34.4968	-13.7451	-10.1295
30025	-20.121	-34.6398	-13.9051	-10.0576
30050	-20.1557	-34.7186	-13.9892	-9.97665
30075	-20.1257	-34.6566	-13.938	-9.88633
30100	-20.0445	-34.491	-13.817	-9.74604
30125	-19.9861	-34.3724	-13.7301	-9.611
30150	-19.9918	-34.3844	-13.7354	-9.53996
30175	-20.0315	-34.4651	-13.778	-9.50512
30200	-20.0335	-34.4736	-13.7607	-9.3596
30225	-19.9931	-34.3856	-13.671	-9.24909
30250	-19.9441	-34.279	-13.5849	-9.14276
30275	-19.9341	-34.2609	-13.5892	-9.03215
30300	-19.9524	-34.3075	-13.6755	-8.92933
30325	-19.9607	-34.3286	-13.7341	-8.86673
30350	-19.9108	-34.2267	-13.6692	-8.72971
30375	-19.8098	-34.0105	-13.4954	-8.60696
30400	-19.707	-33.7853	-13.3151	-8.50379
30425	-19.6341	-33.6304	-13.2111	-8.37953
30450	-19.6122	-33.5859	-13.2074	-8.30011
30475	-19.6122	-33.5917	-13.2417	-8.16107
30500	-19.5932	-33.5511	-13.2203	-8.02822
30525	-19.5369	-33.4312	-13.1241	-7.85511
30550	-19.4735	-33.2902	-13.0114	-7.73142
30575	-19.4043	-33.1425	-12.9264	-7.65507
30600	-19.3529	-33.0401	-12.8983	-7.54135
30625	-19.3214	-32.9766	-12.9063	-7.45313
30650	-19.2783	-32.8969	-12.912	-7.26785
30675	-19.2243	-32.7819	-12.8655	-7.17324
30700	-19.1372	-32.5942	-12.7492	-7.07193
30725	-19.028	-32.3635	-12.6006	-6.9233
30750	-18.9488	-32.1921	-12.4899	-6.80834
30775	-18.9205	-32.1303	-12.4542	-6.66375
30800	-18.9207	-32.1237	-12.4578	-6.60386
30825	-18.8915	-32.0573	-12.4269	-6.52513
30850	-18.811	-31.8846	-12.3306	-6.40187
30875	-18.719	-31.6899	-12.2337	-6.28275
30900	-18.6796	-31.6052	-12.2159	-6.21155
30925	-18.6756	-31.5996	-12.2766	-6.13687
30950	-18.6783	-31.6101	-12.3571	-6.01857
30975	-18.6328	-31.5172	-12.3465	-5.88676
31000	-18.5457	-31.3293	-12.2333	-5.76755
31025	-18.463	-31.1579	-12.117	-5.49954
31050	-18.4333	-31.0931	-12.0881	-5.36084
31075	-18.4395	-31.1051	-12.1286	-5.20403
31100	-18.439	-31.1036	-12.1572	-5.06782
31125	-18.4007	-31.0253	-12.1145	-4.81119
31150	-18.3345	-30.8861	-12.0268	-4.61602
31175	-18.274	-30.7605	-11.961	-4.42702
31200	-18.247	-30.7078	-11.9715	-4.23482
31225	-18.2552	-30.7284	-12.0392	-4.03626
31250	-18.2702	-30.7629	-12.1104	-3.85009
31275	-18.2817	-30.7884	-12.1522	-3.63045
31300	-18.2724	-30.7694	-12.1433	-3.44537
31325	-18.2382	-30.7012	-12.0932	-3.22188
31350	-18.2082	-30.6377	-12.0543	-3.12519
31375	-18.2075	-30.6409	-12.0754	-2.96578
31400	-18.2417	-30.7146	-12.1791	-2.87957
31425	-18.2846	-30.8045	-12.302	-2.84519
31450	-18.3024	-30.8419	-12.3522	-2.80169
31475	-18.2438	-30.7249	-12.2866	-2.74706
31500	-18.1654	-30.5691	-12.1774	-2.70156
31525	-18.1451	-30.5282	-12.1599	-2.77691
31550	-18.1925	-30.6235	-12.2657	-2.94165
31575	-18.2624	-30.7633	-12.3367	-3.11676
31600	-18.2824	-30.8084	-12.326	-3.23386
31625	-18.2627	-30.7681	-12.3309	-3.41353
31650	-18.2583	-30.7589	-12.3565	-3.58167
31675	-18.3145	-30.8744	-12.3931	-3.75371
31700	-18.3911	-31.0307	-12.3892	-3.93496
31725	-18.4317	-31.1103	-12.3437	-4.16487
31750	-18.415	-31.0751	-12.304	-4.35648
31775	-18.3823	-31.0115	-12.2996	-4.523
31800	-18.3723	-30.9912	-12.3063	-4.72523
31825	-18.408	-31.0607	-12.3107	-4.94173
31850	-18.4774	-31.1972	-12.3127	-5.173
31875	-18.5461	-31.3306	-12.3269	-5.41071
31900	-18.589	-31.4132	-12.3512	-5.67931
31925	-18.6013	-31.4347	-12.3949	-5.94866
31950	-18.5641	-31.3576	-12.4069	-6.20072
31975	-18.531	-31.2862	-12.4236	-6.47613
32000	-18.5513	-31.3224	-12.4552	-6.75602
32025	-18.628	-31.4714	-12.4842	-6.99634
32050	-18.7378	-31.6798	-12.5037	-7.33031
32075	-18.8139	-31.8203	-12.5028	-7.61802
32100	-18.8374	-31.8608	-12.5117	-7.87004
32125	-18.8228	-31.8312	-12.5241	-8.04186
32150	-18.8384	-31.8565	-12.5447	-8.29866
32175	-18.9184	-32.0088	-12.5688	-8.50908
32200	-19.0265	-32.2127	-12.6026	-8.78672
32225	-19.0881	-32.3293	-12.6399	-9.00968
32250	-19.0806	-32.3183	-12.6914	-9.17397
32275	-19.0403	-32.2462	-12.751	-9.28192
32300	-19.0455	-32.2572	-12.808	-9.45619
32325	-19.1186	-32.4027	-12.8558	-9.55533
32350	-19.2225	-32.6073	-12.9025	-9.70221
32375	-19.2837	-32.7312	-12.9389	-9.75031
32400	-19.2779	-32.7246	-12.9719	-9.81662
32425	-19.2292	-32.6394	-12.9974	-9.72992
32450	-19.2145	-32.6175	-13.0315	-9.68972
32475	-19.2771	-32.7492	-13.0816	-9.67897
32500	-19.3851	-32.9657	-13.1245	-9.72684
32525	-19.4749	-33.1506	-13.1609	-9.68916
32550	-19.5165	-33.2388	-13.2072	-9.69122
32575	-19.5012	-33.2197	-13.2583	-9.63675
32600	-19.4705	-33.1671	-13.3245	-9.64429
32625	-19.475	-33.1837	-13.386	-9.6538
32650	-19.5392	-33.3103	-13.4272	-9.81044
32675	-19.6292	-33.4927	-13.4451	-9.8206
32700	-19.699	-33.6327	-13.4614	-9.86648
32725	-19.712	-33.6617	-13.4907	-9.89864
32750	-19.6664	-33.5768	-13.5178	-9.88942
32775	-19.6137	-33.4772	-13.5365	-9.85674
32800	-19.6137	-33.4796	-13.5497	-9.86992
32825	-19.6938	-33.6418	-13.5964	-9.93041
32850	-19.7849	-33.8251	-13.664	-10.0156
32875	-19.8031	-33.866	-13.7165	-10.0571
32900	-19.7549	-33.7714	-13.7568	-10.0677
32925	-19.7063	-33.6745	-13.7897	-10.0892
32950	-19.7164	-33.6914	-13.8211	-10.1823
32975	-19.7844	-33.8292	-13.8544	-10.268
33000	-19.8354	-33.9383	-13.8698	-10.228
33025	-19.8229	-33.9134	-13.8688	-10.2438
33050	-19.7745	-33.8139	-13.8966	-10.2735
33075	-19.7415	-33.7508	-13.7656	-10.1902
33100	-19.7559	-33.7785	-13.7326	-10.241
33125	-19.817	-33.9033	-13.7944	-10.3009
33150	-19.8818	-34.0346	-13.8766	-10.3671
33175	-19.9034	-34.0794	-13.8848	-10.3786
33200	-19.8863	-34.0417	-13.7875	-10.3797
33225	-19.8406	-33.9406	-13.629	-10.3978
33250	-19.7905	-33.8286	-13.4819	-10.4266
33275	-19.778	-33.798	-13.4434	-10.491
33300	-19.8187	-33.8827	-13.5269	-10.5819
33325	-19.8756	-34.0062	-13.6564	-10.6169
33350	-19.9044	-34.0612	-13.7049	-10.7512
33375	-19.8755	-33.9919	-13.6078	-10.8502
33400	-19.8286	-33.8832	-13.449	-10.8892
33425	-19.8307	-33.8784	-13.3736	-10.892
33450	-19.8849	-33.9869	-13.4429	-11.0103
33475	-19.9683	-34.1643	-13.5739	-11.0548
33500	-20.0029	-34.2327	-13.5891	-11.0825
33525	-19.9477	-34.1035	-13.4199	-11.0696
33550	-19.8574	-33.9003	-13.211	-11.0153
33575	-19.7941	-33.7651	-13.102	-10.9693
33600	-19.7999	-33.7824	-13.1264	-10.9757
33625	-19.8432	-33.8727	-13.1818	-11.0293
33650	-19.8572	-33.8948	-13.1681	-11.0634
33675	-19.8282	-33.8284	-13.0816	-10.982
33700	-19.806	-33.771	-13.0114	-11.0004
33725	-19.8137	-33.7873	-13.0074	-10.9751
33750	-19.8657	-33.8933	-13.0699	-11.0827
33775	-19.9108	-33.9966	-13.1486	-11.0748
33800	-19.921	-34.0213	-13.1766	-11.0959
33825	-19.8899	-33.9601	-13.1285	-11.0013
33850	-19.8325	-33.8254	-12.9975	-10.99
33875	-19.757	-33.6549	-12.8383	-10.8905
33900	-19.6914	-33.5141	-12.7353	-10.8381
33925	-19.6608	-33.472	-12.749	-10.7442
33950	-19.679	-33.5331	-12.8388	-10.7122
33975	-19.6945	-33.5775	-12.8829	-10.6529
34000	-19.6258	-33.4405	-12.7839	-10.4734
34025	-19.5146	-33.1993	-12.5985	-10.353
34050	-19.4385	-33.034	-12.4714	-10.2624
34075	-19.4615	-33.0905	-12.5049	-10.2061
34100	-19.543	-33.277	-12.6433	-10.2205
34125	-19.572	-33.3592	-12.735	-10.1996
34150	-19.5121	-33.2471	-12.6977	-10.1499
34175	-19.4268	-33.0742	-12.5968	-10.0556
34200	-19.3829	-32.987	-12.54	-9.96577
34225	-19.3857	-33.0031	-12.5673	-9.94667
34250	-19.4106	-33.0677	-12.6376	-9.96535
34275	-19.394	-33.0429	-12.6494	-9.94732
34300	-19.3376	-32.9284	-12.5748	-9.87211
34325	-19.287	-32.8204	-12.497	-9.83518
34350	-19.2511	-32.7493	-12.4642	-9.82434
34375	-19.2425	-32.741	-12.479	-9.82491
34400	-19.2824	-32.8319	-12.5538	-9.86464
34425	-19.3586	-32.9961	-12.6639	-9.91042
34450	-19.4055	-33.1049	-12.7577	-9.91193
34475	-19.3811	-33.0703	-12.7843	-9.85694
34500	-19.3007	-32.92	-12.7401	-9.7705
34525	-19.2385	-32.8028	-12.6811	-9.6553
34550	-19.2141	-32.7587	-12.6696	-9.61364
34575	-19.229	-32.8042	-12.7398	-9.56246
34600	-19.2501	-32.8596	-12.8262	-9.56335
34625	-19.2201	-32.8021	-12.8282	-9.5858
34650	-19.1725	-32.7013	-12.7729	-9.61016
34675	-19.1158	-32.5893	-12.7183	-9.55123
34700	-19.0982	-32.5616	-12.7582	-9.5407
34725	-19.1259	-32.6316	-12.8823	-9.54678
34750	-19.1568	-32.7002	-12.9865	-9.59724
34775	-19.1254	-32.6376	-12.9792	-9.58667
34800	-19.0453	-32.4754	-12.8906	-9.49805
34825	-18.9731	-32.3275	-12.8286	-9.46369
34850	-18.9489	-32.2777	-12.8501	-9.50938
34875	-18.9804	-32.349	-12.9406	-9.51569
34900	-19.0182	-32.4284	-13.037	-9.56738
34925	-19.0183	-32.4279	-13.0856	-9.59762
34950	-18.993	-32.376	-13.1104	-9.5919
34975	-18.9787	-32.3483	-13.1603	-9.58523
35000	-18.9893	-32.363	-13.1056	-9.67435
35025	-19.0012	-32.3852	-13.0616	-9.69854
35050	-18.9828	-32.3474	-13.0018	-9.66806
35075	-18.9499	-32.2778	-12.942	-9.66194
35100	-18.9127	-32.2032	-12.8885	-9.63083
35125	-18.8722	-32.1274	-12.8162	-9.54295
35150	-18.8538	-32.085	-12.7484	-9.5688
35175	-18.8508	-32.0791	-12.6907	-9.51543
35200	-18.8603	-32.0996	-12.6542	-9.45345
35225	-18.8579	-32.0907	-12.6263	-9.47451
35250	-18.8186	-32.0101	-12.5862	-9.46418
35275	-18.7557	-31.8832	-12.5348	-9.43149
35300	-18.7062	-31.7815	-12.4727	-9.38379
35325	-18.6982	-31.7533	-12.3815	-9.39088
35350	-18.7291	-31.7987	-12.2968	-9.42485
35375	-18.7757	-31.8721	-12.2475	-9.51556
35400	-18.7626	-31.8343	-12.2005	-9.56147
35425	-18.7043	-31.7157	-12.166	-9.56145
35450	-18.6455	-31.5977	-12.1365	-9.56179
35475	-18.6283	-31.5565	-12.1065	-9.59262
35500	-18.6492	-31.5888	-12.0959	-9.64879
35525	-18.6675	-31.6192	-12.0882	-9.66056
35550	-18.6452	-31.5676	-12.0576	-9.67078
35575	-18.6066	-31.4871	-12.0252	-9.6514
35600	-18.5851	-31.4372	-12.0008	-9.68589
35625	-18.585	-31.4284	-11.9764	-9.73198
35650	-18.5846	-31.4168	-11.9412	-9.76759
35675	-18.5827	-31.4047	-11.9082	-9.77137
35700	-18.5793	-31.3917	-11.8895	-9.78159
35725	-18.5836	-31.4027	-11.9094	-9.78681
35750	-18.5826	-31.4073	-11.937	-9.76565
35775	-18.5685	-31.3809	-11.9444	-9.75495
35800	-18.5469	-31.3416	-11.9262	-9.6565
35825	-18.5615	-31.3645	-11.9236	-9.68419
35850	-18.5867	-31.416	-11.9345	-9.63346
35875	-18.5957	-31.4355	-11.9562	-9.64296
35900	-18.5647	-31.3804	-11.9725	-9.62596
35925	-18.5329	-31.3295	-12.0004	-9.54159
35950	-18.555	-31.3749	-12.0477	-9.57188
35975	-18.6091	-31.4772	-12.0789	-9.62586
36000	-18.6521	-31.5612	-12.099	-9.62337
36025	-18.6592	-31.5813	-12.1218	-9.56502
36050	-18.6674	-31.6032	-12.1805	-9.58081
36075	-18.7026	-31.6786	-12.249	-9.58371
36100	-18.7663	-31.8019	-12.2887	-9.62202
36125	-18.8137	-31.8832	-12.28	-9.6963
36150	-18.8221	-31.9002	-12.2809	-9.66245
36175	-18.8079	-31.8786	-12.3306	-9.67224
36200	-18.7922	-31.8586	-12.407	-9.65891
36225	-18.8046	-31.886	-12.4835	-9.7072
36250	-18.8222	-31.9276	-12.5342	-9.67093
36275	-18.8447	-31.9746	-12.5917	-9.68362
36300	-18.8865	-32.0608	-12.692	-9.71257
36325	-18.9464	-32.184	-12.8026	-9.7341
36350	-18.9955	-32.2838	-12.878	-9.74622
36375	-19.014	-32.312	-12.9231	-9.88775
36400	-19.009	-32.3049	-12.9625	-9.86518
36425	-19.0266	-32.3325	-13.0076	-9.98894
36450	-19.0699	-32.4218	-13.051	-9.95286
36475	-19.1332	-32.5444	-13.0929	-10.0203
36500	-19.1889	-32.6529	-13.1708	-10.1072
36525	-19.2196	-32.7137	-13.2917	-10.144
36550	-19.2359	-32.7386	-13.3223	-10.2384
36575	-19.2789	-32.8215	-13.336	-10.2865
36600	-19.3643	-32.9882	-13.4393	-10.398
36625	-19.4364	-33.1307	-13.5069	-10.4644
36650	-19.449	-33.1524	-13.4549	-10.4797
36675	-19.4225	-33.0931	-13.3312	-10.4533
36700	-19.4004	-33.0437	-13.2548	-10.4355
36725	-19.45	-33.1382	-13.302	-10.5186
36750	-19.5326	-33.3034	-13.3835	-10.5732
36775	-19.5737	-33.3797	-13.3831	-10.6352
36800	-19.5607	-33.3435	-13.2992	-10.6387
36825	-19.5542	-33.3244	-13.2403	-10.6112
36850	-19.6044	-33.4236	-13.2799	-10.6139
36875	-19.6979	-33.6114	-13.3808	-10.6703
36900	-19.7864	-33.7891	-13.4748	-10.723
36925	-19.8291	-33.87	-13.4887	-10.7444
36950	-19.8285	-33.8616	-13.4381	-10.7535
36975	-19.8386	-33.8756	-13.4021	-10.7186
37000	-19.8543	-33.8976	-13.3868	-10.803
37025	-19.8543	-33.8985	-13.3811	-10.7425
37050	-19.8685	-33.9236	-13.3913	-10.7738
37075	-19.9295	-34.0466	-13.4502	-10.7618
37100	-20.0198	-34.2256	-13.539	-10.8308
37125	-20.0875	-34.3546	-13.5724	-10.888
37150	-20.1239	-34.4094	-13.5355	-11.0158
37175	-20.1154	-34.3764	-13.4409	-10.9576
37200	-20.1259	-34.3751	-13.3788	-11.0785
37225	-20.1742	-34.4668	-13.417	-11.1369
37250	-20.2288	-34.5792	-13.4852	-11.1482
37275	-20.2752	-34.664	-13.5269	-11.3176
37300	-20.2839	-34.6728	-13.5011	-11.2979
37325	-20.2797	-34.6496	-13.4679	-11.4198
37350	-20.3014	-34.6923	-13.4889	-11.4099
37375	-20.3367	-34.7632	-13.5275	-11.4306
37400	-20.362	-34.8079	-13.547	-11.5179
37425	-20.3704	-34.8022	-13.4883	-11.6228
37450	-20.3852	-34.8124	-13.4298	-11.5832
37475	-20.4461	-34.9236	-13.4494	-11.5822
37500	-20.5401	-35.1126	-13.5486	-11.6601
37525	-20.6013	-35.2428	-13.6315	-11.6503
37550	-20.5885	-35.2103	-13.6022	-11.6394
37575	-20.5188	-35.0588	-13.4868	-11.4731
37600	-20.4384	-34.8878	-13.3776	-11.3759
37625	-20.3759	-34.7617	-13.3161	-11.3089
37650	-20.3449	-34.7076	-13.306	-11.2213
37675	-20.3251	-34.6693	-13.3	-11.2544
37700	-20.3344	-34.6813	-13.298	-11.3159
37725	-20.3622	-34.7325	-13.3093	-11.2799
37750	-20.3909	-34.7808	-13.3264	-11.3837
37775	-20.4011	-34.794	-13.311	-11.3181
37800	-20.3801	-34.732	-13.245	-11.3863
37825	-20.3411	-34.6426	-13.1829	-11.4082
37850	-20.3157	-34.5969	-13.1881	-11.4768
37875	-20.3074	-34.6003	-13.2469	-11.4741
37900	-20.29	-34.5637	-13.2573	-11.7098
37925	-20.2114	-34.395	-13.1538	-11.7166
37950	-20.0943	-34.1497	-13.004	-11.5855
37975	-20.019	-34.0002	-12.9427	-11.5725
38000	-20.0323	-34.0376	-13.0002	-11.6298
38025	-20.0979	-34.1684	-13.0812	-11.7831
38050	-20.0929	-34.1475	-13.0409	-11.7554
38075	-19.9845	-33.9125	-12.8881	-11.7562
38100	-19.8459	-33.6323	-12.7476	-11.6407
38125	-19.7747	-33.4962	-12.7201	-11.7708
38150	-19.7591	-33.4822	-12.7744	-11.8138
38175	-19.7325	-33.4426	-12.8124	-11.8775
38200	-19.6546	-33.2935	-12.7841	-11.9726
38225	-19.5755	-33.1397	-12.7361	-11.9795
38250	-19.542	-33.0753	-12.7172	-11.9452
38275	-19.5344	-33.0536	-12.7042	-12.1067
38300	-19.4764	-32.9319	-12.629	-12.0624
38325	-19.381	-32.7256	-12.5106	-12.3196
38350	-19.3087	-32.5755	-12.4322	-12.3584
38375	-19.2923	-32.5409	-12.4284	-12.4957
38400	-19.2672	-32.4923	-12.443	-12.7692
38425	-19.1537	-32.2781	-12.3986	-12.7202
38450	-19.0156	-32.0064	-12.3052	-12.763
38475	-18.9233	-31.8208	-12.246	-12.9908
38500	-18.9006	-31.7831	-12.2696	-12.9425
38525	-18.8777	-31.7477	-12.3076	-12.8325
38550	-18.8054	-31.6063	-12.2697	-12.8035
38575	-18.7194	-31.4298	-12.169	-12.8027
38600	-18.6804	-31.3508	-12.1061	-12.6358
38625	-18.6732	-31.3391	-12.1141	-12.5984
38650	-18.6341	-31.2655	-12.1313	-12.7109
38675	-18.5276	-31.0594	-12.0716	-12.5425
38700	-18.3892	-30.7768	-11.9206	-12.6078
38725	-18.2743	-30.5464	-11.7774	-12.3148
38750	-18.2021	-30.3999	-11.7275	-12.4664
38775	-18.1471	-30.299	-11.7414	-12.3554
38800	-18.107	-30.2215	-11.75	-12.4525
38825	-18.0716	-30.1497	-11.7178	-12.5101
38850	-18.0333	-30.0731	-11.6716	-12.3961
38875	-17.9732	-29.9513	-11.6215	-12.4227
38900	-17.9057	-29.816	-11.5816	-12.4761
38925	-17.8564	-29.7199	-11.5317	-12.3396
38950	-17.8338	-29.6698	-11.4773	-12.4346
38975	-17.8182	-29.641	-11.466	-12.338
39000	-17.7861	-29.5806	-11.4852	-12.3505
39025	-17.7356	-29.4874	-11.4807	-12.1068
39050	-17.6858	-29.3886	-11.4255	-12.0479
39075	-17.6349	-29.2879	-11.3444	-11.8662
39100	-17.5829	-29.1893	-11.2865	-11.5286
39125	-17.5602	-29.1465	-11.2977	-11.4902
39150	-17.5549	-29.1377	-11.3123	-11.4946
39175	-17.5483	-29.129	-11.2818	-11.2949
39200	-17.5224	-29.0743	-11.2188	-11.3144
39225	-17.5006	-29.0357	-11.2166	-11.1749
39250	-17.5089	-29.0613	-11.2801	-11.0247
39275	-17.5459	-29.1385	-11.3649	-11.1107
39300	-17.5657	-29.1827	-11.4115	-11.0393
39325	-17.5418	-29.1376	-11.4009	-10.9424
39350	-17.4822	-29.0223	-11.3683	-10.7888
39375	-17.4393	-28.9378	-11.3429	-10.7758
39400	-17.4415	-28.9473	-11.3383	-10.6719
39425	-17.4505	-28.9663	-11.3466	-10.7012
39450	-17.4485	-28.9681	-11.3719	-10.583
39475	-17.4534	-28.9821	-11.4328	-10.5317
39500	-17.4711	-29.0196	-11.4927	-10.5471
39525	-17.502	-29.0852	-11.5251	-10.4907
39550	-17.5133	-29.1108	-11.5187	-10.4576
39575	-17.484	-29.0552	-11.4779	-10.3611
39600	-17.4755	-29.0433	-11.4775	-10.2717
39625	-17.5013	-29.097	-11.5264	-10.3322
39650	-17.5304	-29.1618	-11.5446	-10.2405
39675	-17.5472	-29.2049	-11.5415	-10.0534
39700	-17.547	-29.2056	-11.5052	-10.0419
39725	-17.5476	-29.2124	-11.4528	-9.90734
39750	-17.5751	-29.2733	-11.4445	-9.84659
39775	-17.6224	-29.3745	-11.4713	-9.78602
39800	-17.6557	-29.4468	-11.4969	-9.74372
39825	-17.6662	-29.4782	-11.5055	-9.55943
39850	-17.6968	-29.5397	-11.5233	-9.62115
39875	-17.7573	-29.6623	-11.5476	-9.65467
39900	-17.829	-29.8133	-11.5927	-9.60203
39925	-17.8609	-29.88	-11.5951	-9.59645
39950	-17.862	-29.8831	-11.5729	-9.59083
39975	-17.8711	-29.9006	-11.5578	-9.65336
40000	-17.9127	-29.9884	-11.568	-9.64883
40025	-18.0031	-30.1678	-11.6156	-9.76337
40050	-18.0818	-30.3264	-11.6555	-9.7813
40075	-18.1433	-30.4536	-11.7004	-9.76732
40100	-18.1998	-30.5761	-11.759	-9.69747
40125	-18.2637	-30.7059	-11.8224	-9.81392
40150	-18.3295	-30.8394	-11.8663	-9.86249
40175	-18.3905	-30.9628	-11.9002	-9.90599
40200	-18.4282	-31.0381	-11.905	-9.92172
40225	-18.4586	-31.1018	-11.9056	-9.88646
40250	-18.5176	-31.2241	-11.9492	-9.89578
40275	-18.5832	-31.3593	-11.9912	-9.91025
40300	-18.6361	-31.4709	-12.0441	-9.94581
40325	-18.6755	-31.5642	-12.1184	-9.91226
40350	-18.7333	-31.6925	-12.2161	-9.96306
40375	-18.8147	-31.8637	-12.2958	-9.97998
40400	-18.9053	-32.0499	-12.3393	-9.93823
40425	-18.9759	-32.1904	-12.3621	-9.94517
40450	-19.0118	-32.2702	-12.4093	-9.96613
40475	-19.0438	-32.3525	-12.488	-9.95924
40500	-19.0891	-32.4495	-12.5347	-10.0048
40525	-19.1541	-32.5777	-12.5368	-10.0144
40550	-19.2325	-32.7311	-12.5566	-10.0371
40575	-19.3048	-32.8874	-12.6304	-10.0249
40600	-19.3743	-33.0421	-12.7466	-10.0809
40625	-19.4301	-33.1696	-12.8332	-10.0752
40650	-19.4902	-33.298	-12.8957	-10.1024
40675	-19.5622	-33.455	-12.9873	-10.1496
40700	-19.6239	-33.5915	-13.0942	-10.2366
40725	-19.6558	-33.6715	-13.1634	-10.2486
40750	-19.6766	-33.7213	-13.1788	-10.2356
40775	-19.7172	-33.8064	-13.1851	-10.2178
40800	-19.7761	-33.9324	-13.2493	-10.2617
40825	-19.8287	-34.0514	-13.3597	-10.3377
40850	-19.8641	-34.1394	-13.4445	-10.3435
40875	-19.9227	-34.263	-13.5003	-10.3878
40900	-20.0177	-34.4597	-13.5776	-10.4466
40925	-20.1022	-34.641	-13.6786	-10.5024
40950	-20.119	-34.6896	-13.7514	-10.5284
40975	-20.0845	-34.6343	-13.7518	-10.4731
41000	-20.1038	-34.6744	-13.7691	-10.5321
41025	-20.1819	-34.8412	-13.8394	-10.5661
41050	-20.2418	-34.9802	-13.9331	-10.5752
41075	-20.2165	-34.9425	-13.9902	-10.5924
41100	-20.1264	-34.7759	-14.0147	-10.5391
41125	-20.0782	-34.6952	-14.0731	-10.4752
41150	-20.1122	-34.7792	-14.1885	-10.4625
41175	-20.1678	-34.9036	-14.2906	-10.4744
41200	-20.1675	-34.9088	-14.2974	-10.4943
41225	-20.146	-34.8721	-14.2837	-10.4901
41250	-20.1531	-34.895	-14.321	-10.5087
41275	-20.1863	-34.9778	-14.4212	-10.5116
41300	-20.1559	-34.9317	-14.4411	-10.4536
41325	-20.0966	-34.8112	-14.3642	-10.4703
41350	-20.0604	-34.7463	-14.2566	-10.4043
41375	-20.0841	-34.8018	-14.2363	-10.3773
41400	-20.1014	-34.8489	-14.2549	-10.3475
41425	-20.0567	-34.7626	-14.221	-10.3413
41450	-19.9648	-34.5756	-14.0694	-10.3256
41475	-19.8912	-34.4285	-13.8911	-10.276
41500	-19.8621	-34.3667	-13.7789	-10.274
41525	-19.815	-34.2831	-13.7294	-10.2191
41550	-19.7564	-34.1674	-13.6985	-10.2162
41575	-19.701	-34.0632	-13.6245	-10.1464
41600	-19.6694	-33.9934	-13.5053	-10.1237
41625	-19.6394	-33.929	-13.4075	-10.098
41650	-19.5639	-33.7841	-13.3447	-10.0488
41675	-19.4734	-33.6086	-13.2895	-10.0229
41700	-19.4205	-33.5146	-13.2271	-9.9576
41725	-19.4164	-33.4999	-13.1772	-9.97698
41750	-19.3808	-33.43	-13.1295	-9.94425
41775	-19.3004	-33.2721	-13.0643	-9.90407
41800	-19.2214	-33.1119	-12.9657	-9.90467
41825	-19.1787	-33.0105	-12.8346	-9.94817
41850	-19.1551	-32.9593	-12.7309	-9.8976
41875	-19.11	-32.8663	-12.6688	-9.87271
41900	-19.0429	-32.7409	-12.6216	-9.80905
41925	-19.0024	-32.6679	-12.5754	-9.74394
41950	-18.998	-32.6415	-12.504	-9.80365
41975	-18.9773	-32.5845	-12.419	-9.81409
42000	-18.9259	-32.4884	-12.3637	-9.76101
42025	-18.8732	-32.3873	-12.3127	-9.74898
42050	-18.8473	-32.3289	-12.249	-9.77998
42075	-18.8074	-32.2372	-12.1261	-9.74774
42100	-18.7517	-32.1073	-11.9999	-9.70422
42125	-18.7033	-32.0104	-11.9422	-9.65374
42150	-18.7045	-32.022	-11.9505	-9.61685
42175	-18.7456	-32.1113	-11.9806	-9.63697
42200	-18.7597	-32.1338	-11.9672	-9.69407
42225	-18.6837	-31.9857	-11.8772	-9.63095
42250	-18.5585	-31.7329	-11.7428	-9.55298
42275	-18.4571	-31.5345	-11.6345	-9.46058
42300	-18.4387	-31.4972	-11.596	-9.45639
42325	-18.4716	-31.5711	-11.6209	-9.46507
42350	-18.4768	-31.5874	-11.6273	-9.47959
42375	-18.4316	-31.5034	-11.5672	-9.40965
42400	-18.3681	-31.3588	-11.4435	-9.36229
42425	-18.3044	-31.2149	-11.3204	-9.30923
42450	-18.2407	-31.0879	-11.242	-9.2598
42475	-18.1821	-30.9828	-11.2079	-9.23477
42500	-18.134	-30.9135	-11.2021	-9.17084
42525	-18.1062	-30.8749	-11.1924	-9.12863
42550	-18.0684	-30.8003	-11.1393	-9.09844
42575	-17.9964	-30.6551	-11.0465	-9.04483
42600	-17.9241	-30.505	-10.949	-8.99944
42625	-17.8926	-30.4394	-10.8991	-8.99492
42650	-17.9197	-30.5135	-10.9407	-8.98544
42675	-17.9568	-30.6183	-11.0212	-8.98709
42700	-17.9457	-30.6256	-11.0515	-8.94353
42725	-17.8784	-30.4847	-10.96	-8.89685
42750	-17.7819	-30.266	-10.7952	-8.82736
42775	-17.7069	-30.1035	-10.6742	-8.77153
42800	-17.6714	-30.0489	-10.6606	-8.76094
42825	-17.632	-30.0123	-10.6927	-8.72237
42850	-17.5906	-29.9582	-10.6945	-8.68457
42875	-17.5501	-29.8716	-10.6321	-8.65983
42900	-17.5081	-29.7877	-10.5631	-8.59129
42925	-17.4665	-29.7252	-10.5461	-8.5375
42950	-17.4337	-29.6939	-10.573	-8.50789
42975	-17.405	-29.6646	-10.5854	-8.48466
43000	-17.3865	-29.6339	-10.563	-8.489
43025	-17.3549	-29.5877	-10.5381	-8.44518
43050	-17.3161	-29.5376	-10.5353	-8.38315
43075	-17.2561	-29.4467	-10.5212	-8.32009
43100	-17.1984	-29.3445	-10.4735	-8.27121
43125	-17.1593	-29.2699	-10.4162	-8.23612
43150	-17.1202	-29.2064	-10.3873	-8.19422
43175	-17.0715	-29.1409	-10.3911	-8.14598
43200	-17.0097	-29.0535	-10.3834	-8.06743
43225	-16.9484	-28.9466	-10.3324	-8.01317
43250	-16.8935	-28.8469	-10.2772	-7.97397
43275	-16.8656	-28.8246	-10.3017	-7.93627
43300	-16.8715	-28.8827	-10.4027	-7.93
43325	-16.8873	-28.9613	-10.5024	-7.92234
43350	-16.8667	-28.9453	-10.5055	-7.89693
43375	-16.8005	-28.8248	-10.4325	-7.83575
43400	-16.7302	-28.7037	-10.3929	-7.76314
43425	-16.707	-28.6984	-10.4529	-7.71233
43450	-16.714	-28.7569	-10.5408	-7.68454
43475	-16.6973	-28.7514	-10.5572	-7.672
43500	-16.6141	-28.599	-10.4831	-7.62236
43525	-16.5131	-28.4158	-10.4144	-7.5555
43550	-16.4604	-28.3419	-10.4279	-7.5081
43575	-16.4606	-28.3826	-10.5083	-7.48528
43600	-16.4561	-28.4167	-10.5749	-7.4408
43625	-16.4163	-28.3563	-10.5806	-7.40837
43650	-16.3581	-28.2641	-10.5736	-7.34486
43675	-16.3323	-28.2423	-10.5946	-7.30189
43700	-16.3286	-28.2734	-10.6515	-7.27125
43725	-16.2916	-28.2327	-10.7019	-7.24585
43750	-16.2126	-28.1065	-10.7294	-7.18446
43775	-16.1465	-28.0045	-10.7763	-7.13062
43800	-16.1334	-28.0087	-10.8679	-7.11155
43825	-16.1334	-28.0407	-10.9519	-7.0891
43850	-16.1051	-28.0081	-10.9716	-7.061
43875	-16.0489	-27.9216	-10.9529	-7.00865
43900	-16.0262	-27.9069	-10.9653	-6.97666
43925	-16.0349	-27.9618	-11.0305	-6.95233
43950	-16.0198	-27.9689	-10.9927	-6.89476
43975	-15.9483	-27.8487	-10.8671	-6.81909
44000	-15.851	-27.677	-10.7249	-6.72629
44025	-15.81	-27.6167	-10.643	-6.69394
44050	-15.8182	-27.6652	-10.5929	-6.6958
44075	-15.8107	-27.6782	-10.5142	-6.69967
44100	-15.774	-27.6287	-10.4302	-6.67988
44125	-15.7267	-27.5609	-10.3886	-6.63247
44150	-15.6981	-27.543	-10.3956	-6.56892
44175	-15.7123	-27.6063	-10.4262	-6.53082
44200	-15.7388	-27.6871	-10.4291	-6.51545
44225	-15.7479	-27.7314	-10.406	-6.50682
44250	-15.7344	-27.7284	-10.3655	-6.50225
44275	-15.7073	-27.706	-10.3122	-6.48677
44300	-15.676	-27.6671	-10.2423	-6.482
44325	-15.6377	-27.6096	-10.1784	-6.46973
44350	-15.6131	-27.5855	-10.1568	-6.44772
44375	-15.6039	-27.5939	-10.1499	-6.41687
44400	-15.6112	-27.63	-10.1336	-6.39792
44425	-15.6325	-27.6961	-10.1321	-6.39396
44450	-15.6472	-27.7476	-10.1378	-6.4066
44475	-15.6339	-27.752	-10.1594	-6.40524
44500	-15.6053	-27.7312	-10.1794	-6.3862
44525	-15.5769	-27.6961	-10.1368	-6.3761
44550	-15.5709	-27.6938	-10.062	-6.37799
44575	-15.5958	-27.7592	-10.0341	-6.39644
44600	-15.6159	-27.823	-10.0487	-6.40998
44625	-15.6004	-27.8164	-10.0607	-6.40924
44650	-15.5725	-27.7843	-10.0602	-6.41803
44675	-15.5773	-27.8212	-10.0751	-6.4482
44700	-15.6193	-27.9369	-10.1278	-6.4863
44725	-15.6697	-28.0734	-10.2045	-6.5023
44750	-15.685	-28.1347	-10.2522	-6.49201
44775	-15.6709	-28.1331	-10.2638	-6.48056
44800	-15.6773	-28.1739	-10.2957	-6.51365
44825	-15.7192	-28.2953	-10.3744	-6.57895
44850	-15.7597	-28.4146	-10.4458	-6.63354
44875	-15.7671	-28.4613	-10.4716	-6.66354
44900	-15.7627	-28.4759	-10.4766	-6.68801
44925	-15.7852	-28.5549	-10.5246	-6.71994
44950	-15.8396	-28.7023	-10.615	-6.76147
44975	-15.9083	-28.8771	-10.7266	-6.79436
45000	-15.9602	-29.0132	-10.8211	-6.82155
45025	-15.9861	-29.1035	-10.8984	-6.86073
45050	-16.0054	-29.1855	-10.9974	-6.92332
45075	-16.0167	-29.2554	-11.0979	-6.97921
45100	-16.025	-29.3127	-11.1995	-7.01086
45125	-16.0319	-29.3602	-11.278	-7.02056
45150	-16.0566	-29.4475	-11.3586	-7.03544
45175	-16.1037	-29.5778	-11.4578	-7.08599
45200	-16.1437	-29.6931	-11.5599	-7.14177
45225	-16.1556	-29.7496	-11.6586	-7.17319
45250	-16.1393	-29.7491	-11.7507	-7.17702
45275	-16.1335	-29.7771	-11.8393	-7.19061
45300	-16.1789	-29.9126	-11.942	-7.25189
45325	-16.258	-30.1195	-12.0597	-7.33008
45350	-16.3141	-30.2704	-12.1761	-7.37934
45375	-16.3325	-30.3339	-12.3133	-7.39369
45400	-16.3258	-30.3387	-12.4571	-7.39799
45425	-16.3213	-30.3578	-12.4486	-7.42622
45450	-16.3476	-30.4473	-12.4232	-7.47775
45475	-16.3827	-30.5544	-12.4262	-7.51659
45500	-16.4079	-30.6346	-12.4049	-7.53485
45525	-16.4152	-30.6749	-12.3559	-7.54185
45550	-16.4165	-30.6994	-12.3001	-7.56344
45575	-16.4023	-30.694	-12.2472	-7.57834
45600	-16.3859	-30.6747	-12.1761	-7.58269
45625	-16.3721	-30.6597	-12.0922	-7.57407
45650	-16.3868	-30.7134	-12.0269	-7.57717
45675	-16.4237	-30.8144	-11.9999	-7.6099
45700	-16.4383	-30.8714	-11.9775	-7.6328
45725	-16.4252	-30.8635	-11.9322	-7.62456
45750	-16.4062	-30.8371	-11.8727	-7.60197
45775	-16.4029	-30.8541	-11.8326	-7.5921
45800	-16.4251	-30.9338	-11.847	-7.62018
45825	-16.4279	-30.9749	-11.8573	-7.64665
45850	-16.3907	-30.9152	-11.7936	-7.63853
45875	-16.3447	-30.8113	-11.6544	-7.59628
45900	-16.3081	-30.7258	-11.5247	-7.5493
45925	-16.2945	-30.7076	-11.4642	-7.51903
45950	-16.2774	-30.6983	-11.4407	-7.4942
45975	-16.2475	-30.6484	-11.3794	-7.46299
46000	-16.2014	-30.5421	-11.261	-7.41524
46025	-16.1461	-30.429	-11.1641	-7.36484
46050	-16.1083	-30.3977	-11.1691	-7.34377
46075	-16.0906	-30.4358	-11.2442	-7.3408
46100	-16.0825	-30.4748	-11.2886	-7.32892
46125	-16.0493	-30.4146	-11.2243	-7.28242
46150	-15.9691	-30.2331	-11.0763	-7.19673
46175	-15.8761	-30.0411	-10.9511	-7.12214
46200	-15.81	-29.9289	-10.8922	-7.07322
46225	-15.7822	-29.9054	-10.8802	-7.02988
46250	-15.7666	-29.9051	-10.8789	-6.97202
46275	-15.7134	-29.8235	-10.8409	-6.88665
46300	-15.6154	-29.6506	-10.7674	-6.79934
46325	-15.5125	-29.453	-10.6633	-6.73663
46350	-15.4249	-29.2787	-10.558	-6.67691
46375	-15.3544	-29.1482	-10.4856	-6.60625
46400	-15.2946	-29.0742	-10.4806	-6.52448
46425	-15.2523	-29.0546	-10.5254	-6.45636
46450	-15.219	-29.0375	-10.5531	-6.40329
46475	-15.1583	-28.9345	-10.5053	-6.33021
46500	-15.0494	-28.7308	-10.4081	-6.21527
46525	-14.9268	-28.5168	-10.3275	-6.09068
46550	-14.8318	-28.3819	-10.31	-5.99299
46575	-14.7668	-28.3074	-10.322	-5.91938
46600	-14.6987	-28.2078	-10.3023	-5.83097
46625	-14.5917	-28.0157	-10.2259	-5.69538
46650	-14.4824	-27.8164	-10.1453	-5.55603
46675	-14.4112	-27.7053	-10.1214	-5.46893
46700	-14.392	-27.7114	-10.169	-5.43221
46725	-14.3704	-27.7285	-10.2445	-5.37923
46750	-14.2953	-27.6376	-10.2717	-5.26204
46775	-14.182	-27.4546	-10.2369	-5.09939
46800	-14.0711	-27.2659	-10.187	-4.9575
46825	-13.9971	-27.16	-10.1924	-4.87244
46850	-13.9511	-27.1375	-10.2846	-4.81605
46875	-13.9084	-27.1319	-10.4102	-4.74106
46900	-13.8659	-27.1093	-10.5077	-4.62998
46925	-13.8156	-27.0378	-10.5251	-4.49602
46950	-13.7592	-26.9382	-10.5013	-4.37303
46975	-13.7008	-26.8476	-10.5088	-4.26884
47000	-13.6579	-26.8141	-10.6012	-4.17826
47025	-13.6379	-26.8404	-10.7647	-4.09391
47050	-13.6183	-26.8594	-10.9216	-3.99751
47075	-13.5758	-26.8157	-11.0157	-3.87487
47100	-13.5095	-26.7116	-11.0504	-3.72758
47125	-13.4434	-26.606	-11.084	-3.58083
47150	-13.4087	-26.574	-11.2007	-3.47633
47175	-13.4039	-26.6139	-11.4185	-3.40572
47200	-13.407	-26.6706	-11.6828	-3.3192
47225	-13.3895	-26.6721	-11.8876	-3.16056
47250	-13.3466	-26.6047	-11.9749	-2.94046
47275	-13.3063	-26.5337	-12.0158	-2.76207
47300	-13.2806	-26.4998	-12.1429	-2.68696
47325	-13.2841	-26.5324	-12.418	-2.67083
47350	-13.3014	-26.588	-12.7672	-2.59812
47375	-13.3186	-26.6307	-13.0513	-2.40553
47400	-13.3061	-26.6068	-13.1652	-2.15159
47425	-13.2781	-26.551	-13.1017	-1.98558
47450	-13.2616	-26.5181	-13.0412	-1.927
47475	-13.2792	-26.5482	-12.9917	-1.87949
47500	-13.3228	-26.6251	-12.9515	-1.78792
47525	-13.3488	-26.6669	-12.9064	-1.65916
47550	-13.3416	-26.6433	-12.8585	-1.55685
47575	-13.3105	-26.5676	-12.8	-1.50244
47600	-13.3073	-26.5389	-12.7474	-1.49212
47625	-13.3492	-26.5918	-12.7046	-1.52948
47650	-13.3983	-26.6562	-12.6771	-1.6064
47675	-13.4101	-26.6486	-12.6487	-1.66462
47700	-13.3891	-26.5831	-12.6301	-1.66703
47725	-13.3744	-26.5459	-12.6179	-1.67896
47750	-13.3739	-26.5459	-12.6145	-1.8151
47775	-13.3831	-26.5604	-12.6203	-2.08566
47800	-13.377	-26.5305	-12.55	-2.33909
47825	-13.3599	-26.4748	-12.4227	-2.44584
47850	-13.3403	-26.4264	-12.3569	-2.4566
47875	-13.3295	-26.4066	-12.348	-2.56222
47900	-13.3267	-26.3954	-12.2975	-2.85786
47925	-13.3224	-26.3656	-12.185	-3.19304
47950	-13.3257	-26.3526	-12.1042	-3.40167
47975	-13.3176	-26.3406	-12.0888	-3.45424
48000	-13.2872	-26.3054	-12.1076	-3.46176
48025	-13.2311	-26.2135	-12.0385	-3.53052
48050	-13.1917	-26.1365	-11.9329	-3.67033
48075	-13.1762	-26.1048	-11.8786	-3.79593
48100	-13.1567	-26.0793	-11.8816	-3.84178
48125	-13.0996	-25.9929	-11.8542	-3.82548
48150	-13.0113	-25.8414	-11.7508	-3.81744
48175	-12.9471	-25.7334	-11.6783	-3.86225
48200	-12.927	-25.707	-11.6656	-3.93776
48225	-12.9262	-25.7137	-11.6862	-3.99833
48250	-12.9172	-25.696	-11.6479	-4.0305
48275	-12.8958	-25.6554	-11.5965	-4.03776
48300	-12.8679	-25.6123	-11.5888	-4.03163
48325	-12.8372	-25.5729	-11.6303	-4.02703
48350	-12.8082	-25.5331	-11.6577	-4.04783
48375	-12.7656	-25.4529	-11.5957	-4.08749
48400	-12.7382	-25.3983	-11.5354	-4.13991
48425	-12.7331	-25.3941	-11.548	-4.17431
48450	-12.724	-25.3876	-11.5975	-4.16563
48475	-12.6916	-25.3295	-11.5928	-4.13191
48500	-12.665	-25.2755	-11.5485	-4.13331
48525	-12.6746	-25.2934	-11.5449	-4.19209
48550	-12.7166	-25.3834	-11.6467	-4.26796
48575	-12.7271	-25.4085	-11.7168	-4.29259
48600	-12.6844	-25.3194	-11.6804	-4.26334
48625	-12.6473	-25.2372	-11.612	-4.25667
48650	-12.6687	-25.277	-11.6247	-4.3246
48675	-12.7341	-25.409	-11.7086	-4.43817
48700	-12.7765	-25.4912	-11.7507	-4.51093
48725	-12.7655	-25.4608	-11.7237	-4.50824
48750	-12.7395	-25.3996	-11.7065	-4.47232
48775	-12.7519	-25.4194	-11.7887	-4.48109
48800	-12.7962	-25.5033	-11.8898	-4.55308
48825	-12.8227	-25.549	-11.903	-4.62898
48850	-12.8172	-25.5304	-11.8331	-4.66538
48875	-12.8164	-25.5244	-11.7889	-4.67307
48900	-12.8331	-25.555	-11.8291	-4.68348
48925	-12.8504	-25.5789	-11.8614	-4.71475
48950	-12.8562	-25.5709	-11.7006	-4.75752
48975	-12.8725	-25.5874	-11.5983	-4.80848
49000	-12.9412	-25.7208	-11.6057	-4.88133
49025	-13.0262	-25.892	-11.681	-4.96167
49050	-13.0697	-25.9738	-11.7041	-5.01335
49075	-13.0555	-25.9288	-11.6006	-5.01411
49100	-13.0304	-25.8594	-11.4375	-4.99125
49125	-13.0473	-25.8835	-11.3713	-5.00028
49150	-13.0951	-25.9762	-11.4267	-5.0654
49175	-13.1552	-26.0912	-11.5348	-5.17427
49200	-13.1933	-26.1535	-11.5679	-5.25612
49225	-13.2063	-26.1583	-11.4571	-5.27104
49250	-13.2056	-26.1352	-11.2994	-5.24245
49275	-13.2123	-26.1343	-11.2197	-5.23568
49300	-13.2441	-26.1906	-11.2446	-5.29493
49325	-13.3115	-26.318	-11.3068	-5.39545
49350	-13.3724	-26.4277	-11.3181	-5.46193
49375	-13.3923	-26.4488	-11.2635	-5.47615
49400	-13.3824	-26.4079	-11.202	-5.47961
49425	-13.4018	-26.4291	-11.2083	-5.53823
49450	-13.4716	-26.5656	-11.283	-5.63399
49475	-13.5619	-26.7547	-11.4005	-5.7149
49500	-13.6361	-26.9115	-11.5285	-5.75982
49525	-13.6909	-27.0164	-11.6177	-5.80457
49550	-13.7446	-27.1076	-11.6369	-5.87447
49575	-13.8185	-27.2353	-11.6057	-5.96383
49600	-13.8792	-27.3405	-11.5903	-6.03273
49625	-13.9018	-27.3805	-11.6364	-6.065
49650	-13.909	-27.3939	-11.7177	-6.08631
49675	-13.9119	-27.3976	-11.7317	-6.09728
49700	-13.92	-27.3974	-11.6512	-6.10817
49725	-13.9302	-27.3873	-11.5496	-6.11538
49750	-13.9581	-27.4203	-11.5431	-6.14151
49775	-14.0254	-27.5568	-11.6821	-6.21099
49800	-14.1342	-27.7956	-11.8912	-6.30903
49825	-14.2283	-27.9957	-12.0089	-6.38089
49850	-14.236	-27.9977	-11.957	-6.38536
49875	-14.1897	-27.88	-11.843	-6.36425
49900	-14.1824	-27.8551	-11.8298	-6.38034
49925	-14.2677	-28.0388	-11.9956	-6.46926
49950	-14.3658	-28.2447	-12.207	-6.5662
49975	-14.3921	-28.2828	-12.3009	-6.60737
50000	-14.369	-28.2066	-12.2517	-6.60252
